File: olivine/FTIR/SC1-2-800C-7hr-c00-copper-SiO-baseline.CSV
wavenumber (/cm),baseline value (/cm),baseline-subtracted absorbance (/cm),
1625.72,10.4878,3.55271e-15
1627.65,10.4699,-0.0698237
1629.58,10.4521,0.0707597
1631.51,10.4343,0.13354
1633.44,10.4164,-0.0664356
1635.37,10.3986,-0.648177
1637.3,10.3808,-0.554182
1639.22,10.3629,0.129436
1641.15,10.3451,0.257435
1643.08,10.3273,0.255862
1645.01,10.3094,0.193322
1646.94,10.2916,-0.288384
1648.87,10.2738,-0.198261
1650.8,10.2559,-0.0546709
1652.72,10.2381,-0.472017
1654.65,10.2202,-0.329858
1656.58,10.2024,0.120374
1658.51,10.1846,0.303669
1660.44,10.1667,0.571064
1662.37,10.1489,0.705733
1664.29,10.1311,0.842233
1666.22,10.1132,1.04397
1668.15,10.0954,0.747598
1670.08,10.0776,0.380003
1672.01,10.0597,0.645311
1673.94,10.0419,0.478272
1675.87,10.0241,0.467198
1677.79,10.0062,0.727042
1679.72,9.9884,0.540687
1681.65,9.97056,0.367932
1683.58,9.95273,0.433124
1685.51,9.93489,0.639647
1687.44,9.91706,0.550042
1689.37,9.89922,0.62893
1691.29,9.88139,0.79025
1693.22,9.86355,0.773838
1695.15,9.84572,0.665139
1697.08,9.82789,0.294982
1699.01,9.81006,0.0766952
1700.94,9.79222,0.00338924
1702.86,9.77439,0.408069
1704.79,9.75655,0.480365
1706.72,9.73872,0.614823
1708.65,9.72088,0.790471
1710.58,9.70305,0.661814
1712.51,9.68521,0.696321
1714.43,9.66738,0.877383
1716.36,9.64954,0.672469
1718.29,9.63171,0.303414
1720.22,9.61387,0.626833
1722.15,9.59604,0.750339
1724.08,9.5782,1.26825
1726.01,9.56037,1.77194
1727.93,9.54253,1.59232
1729.86,9.5247,1.46983
1731.79,9.50686,1.5438
1733.72,9.48903,1.24389
1735.65,9.47119,1.45045
1737.58,9.45336,1.08855
1739.51,9.43552,0.974572
1741.43,9.41769,1.37308
1743.36,9.39985,1.79699
1745.29,9.38202,1.92992
1747.22,9.36419,1.33268
1749.15,9.34636,1.2587
1751.08,9.32852,1.60934
1753.01,9.31069,1.45523
1754.93,9.29285,1.33469
1756.86,9.27502,1.5769
1758.79,9.25718,1.8134
1760.72,9.23935,1.46701
1762.65,9.22151,1.07239
1764.58,9.20368,1.11775
1766.51,9.18584,1.43648
1768.43,9.16801,1.56097
1770.36,9.15017,1.40649
1772.29,9.13234,1.25539
1774.22,9.1145,1.42305
1776.15,9.09667,1.51737
1778.08,9.07883,1.57257
1780,9.061,1.58716
1781.93,9.04316,1.8385
1783.86,9.02533,1.85055
1785.79,9.00749,1.95742
1787.72,8.98966,2.0395
1789.65,8.97182,2.10909
1791.58,8.95399,1.68141
1793.5,8.93615,1.49444
1795.43,8.91832,1.69024
1797.36,8.90048,1.80187
1799.29,8.88265,1.88108
1801.22,8.86482,1.84842
1803.15,8.84699,2.06289
1805.08,8.82915,2.12227
1807,8.81132,2.10131
1808.93,8.79348,2.04329
1810.86,8.77565,2.06596
1812.79,8.75781,2.28666
1814.72,8.73998,2.55281
1816.65,8.72214,2.75766
1818.57,8.70431,2.74665
1820.5,8.68647,2.34937
1822.43,8.66864,2.05459
1824.36,8.6508,2.11482
1826.29,8.63297,2.19563
1828.22,8.61513,1.89639
1830.14,8.5973,1.7603
1832.07,8.57946,2.03369
1834,8.56163,2.36762
1835.93,8.54379,2.56183
1837.86,8.52596,2.47759
1839.79,8.50812,2.62567
1841.72,8.49029,2.72532
1843.64,8.47245,2.11448
1845.57,8.45462,1.92492
1847.5,8.43678,2.25676
1849.43,8.41895,2.67803
1851.36,8.40111,2.47056
1853.29,8.38328,2.36193
1855.22,8.36545,2.4254
1857.14,8.34762,2.66824
1859.07,8.32978,2.67106
1861,8.31195,2.48947
1862.93,8.29411,2.63446
1864.86,8.27628,2.70888
1866.79,8.25845,2.57983
1868.71,8.24061,2.3222
1870.64,8.22277,2.33372
1872.57,8.20494,2.57532
1874.5,8.18711,2.58672
1876.43,8.16927,2.43672
1878.36,8.15143,2.55923
1880.29,8.1336,2.83777
1882.21,8.11576,2.87898
1884.14,8.09793,2.85428
1886.07,8.08009,3.06001
1888,8.06226,3.04501
1889.93,8.04442,2.97657
1891.86,8.02659,2.91697
1893.79,8.00875,2.91159
1895.71,7.99092,3.05514
1897.64,7.97308,3.32469
1899.57,7.95525,3.11624
1901.5,7.93741,2.76822
1903.43,7.91958,2.72125
1905.36,7.90174,2.79913
1907.29,7.88391,2.8921
1909.21,7.86608,2.84409
1911.14,7.84825,3.00739
1913.07,7.83041,3.21425
1915,7.81258,3.15875
1916.93,7.79475,2.75964
1918.86,7.77691,2.70041
1920.79,7.75907,2.80001
1922.71,7.74124,2.72697
1924.64,7.72341,2.86469
1926.57,7.70557,2.88933
1928.5,7.68773,2.98935
1930.43,7.6699,3.20929
1932.36,7.65207,3.461
1934.28,7.63423,3.50102
1936.21,7.61639,3.60626
1938.14,7.59856,3.69284
1940.07,7.58073,3.76938
1942,7.56289,3.40013
1943.93,7.54505,3.40974
1945.86,7.52722,3.39713
1947.78,7.50939,3.41175
1949.71,7.49155,3.7742
1951.64,7.47371,3.78167
1953.57,7.45588,3.47564
1955.5,7.43805,3.47729
1957.43,7.42021,3.48184
1959.35,7.40238,3.81283
1961.28,7.38455,3.93717
1963.21,7.36672,3.80339
1965.14,7.34888,3.72221
1967.07,7.33105,3.60832
1969,7.31321,3.45247
1970.92,7.29538,3.59763
1972.85,7.27754,3.62424
1974.78,7.25971,3.67947
1976.71,7.24187,4.01474
1978.64,7.22404,3.86492
1980.57,7.2062,3.8826
1982.5,7.18837,3.88592
1984.42,7.17053,4.14179
1986.35,7.15269,4.21721
1988.28,7.13486,3.92877
1990.21,7.11703,3.62927
1992.14,7.09919,3.70377
1994.07,7.08135,3.63157
1996,7.06352,3.6895
1997.92,7.04569,4.02121
1999.85,7.02785,4.25029
2001.78,7.01002,4.36839
2003.71,6.99218,4.33073
2005.64,6.97435,4.46819
2007.57,6.95651,4.52086
2009.49,6.93868,4.59103
2011.42,6.92084,4.50503
2013.35,6.90301,4.30554
2015.28,6.88518,4.13651
2017.21,6.86735,4.33504
2019.14,6.84951,4.27257
2021.07,6.83168,4.04613
2022.99,6.81384,4.18327
2024.92,6.79601,4.31815
2026.85,6.77817,4.20227
2028.78,6.76034,4.44376
2030.71,6.7425,4.43242
2032.64,6.72467,4.27464
2034.57,6.70683,4.2388
2036.49,6.689,4.31989
2038.42,6.67116,4.65424
2040.35,6.65333,4.40207
2042.28,6.63549,4.23196
2044.21,6.61766,4.38945
2046.14,6.59982,4.54579
2048.07,6.58199,4.0806
2049.99,6.56415,3.927
2051.92,6.54632,4.07363
2053.85,6.52848,3.97486
2055.78,6.51065,3.69449
2057.71,6.49281,3.56576
2059.64,6.47498,3.31017
2061.57,6.45714,2.99003
2063.49,6.43931,2.86064
2065.42,6.42147,2.61792
2067.35,6.40364,2.36952
2069.28,6.38581,2.27513
2071.21,6.36798,2.17069
2073.14,6.35014,1.98717
2075.06,6.33231,1.87406
2076.99,6.31447,1.74694
2078.92,6.29664,1.55222
2080.85,6.2788,1.47333
2082.78,6.26097,1.36561
2084.71,6.24313,1.20837
2086.64,6.2253,1.08256
2088.56,6.20746,0.990062
2090.49,6.18963,0.957659
2092.42,6.17179,0.927611
2094.35,6.15396,0.860371
2096.28,6.13612,0.760673
2098.21,6.11829,0.644565
2100.14,6.10045,0.601209
2102.06,6.08262,0.568286
2103.99,6.06478,0.498452
2105.92,6.04695,0.468642
2107.85,6.02911,0.475287
2109.78,6.01128,0.466012
2111.71,5.99344,0.43797
2113.63,5.97561,0.397314
2115.56,5.95777,0.34234
2117.49,5.93994,0.282473
2119.42,5.92211,0.25285
2121.35,5.90427,0.250903
2123.28,5.88644,0.237432
2125.2,5.86861,0.207552
2127.13,5.85077,0.181284
2129.06,5.83294,0.146142
2130.99,5.8151,0.122664
2132.92,5.79727,0.0628183
2134.85,5.77943,0.0567366
2136.78,5.7616,0.110365
2138.7,5.74376,0.110545
2140.63,5.72593,0.0806493
2142.56,5.70809,0.0704435
2144.49,5.69026,0.0559982
2146.42,5.67242,0.0388632
2148.35,5.65459,0.017888