File: olivine/FTIR/SC1-2-800C-7hr-c06-copper-baseline-low.CSV
wavenumber (/cm),baseline value (/cm),baseline-subtracted absorbance (/cm),
3450.08,0.198009,0.0044021
3452.01,0.19685,0.0014647
3453.94,0.19569,-0.00125381
3455.87,0.194531,0.00202379
3457.8,0.193372,0.00449485
3459.73,0.192213,0.00230217
3461.66,0.191053,0.00445386
3463.58,0.189894,0.00683245
3465.51,0.188734,0.00397939
3467.44,0.187575,0.00711199
3469.37,0.186416,0.0111208
3471.3,0.185257,0.00999186
3473.23,0.184097,0.00570577
3475.15,0.182938,0.00815309
3477.08,0.181778,0.0127264
3479.01,0.180619,0.0151918
3480.94,0.17946,0.0193959
3482.87,0.178301,0.0235378
3484.8,0.177141,0.0229159
3486.72,0.175982,0.0260822
3488.65,0.174822,0.0301057
3490.58,0.173663,0.0294706
3492.51,0.172504,0.0198854
3494.44,0.171345,0.0162184
3496.37,0.170185,0.0157526
3498.3,0.169026,0.0197419
3500.22,0.167866,0.0126268
3502.15,0.166707,0.00472529
3504.08,0.165548,0.0100743
3506.01,0.164389,0.0187203
3507.94,0.163229,0.0216566
3509.87,0.16207,0.02295
3511.8,0.16091,0.0297609
3513.72,0.159751,0.0343366
3515.65,0.158592,0.0356881
3517.58,0.157433,0.0425282
3519.51,0.156273,0.0498138
3521.44,0.155114,0.0552206
3523.37,0.153954,0.0623314
3525.3,0.152795,0.058294
3527.22,0.151636,0.0507312
3529.15,0.150477,0.0507937
3531.08,0.149317,0.0475717
3533.01,0.148158,0.0419111
3534.94,0.146998,0.0418003
3536.87,0.145839,0.0446762
3538.8,0.14468,0.0420829
3540.72,0.143521,0.0371582
3542.65,0.142361,0.0322128
3544.58,0.141202,0.0330698
3546.51,0.140042,0.0285178
3548.44,0.138883,0.0218887
3550.37,0.137724,0.0210817
3552.29,0.136565,0.0334385
3554.22,0.135405,0.044424
3556.15,0.134246,0.0495802
3558.08,0.133086,0.0579372
3560.01,0.131927,0.0745169
3561.94,0.130768,0.0889279
3563.86,0.129609,0.0952892
3565.79,0.128449,0.0998004
3567.72,0.12729,0.124982
3569.65,0.12613,0.137894
3571.58,0.124971,0.144702
3573.51,0.123812,0.141316
3575.44,0.122653,0.11642
3577.36,0.121493,0.082032
3579.29,0.120334,0.0533529
3581.22,0.119174,0.0383485
3583.15,0.118015,0.0297313
3585.08,0.116856,0.0150914
3587.01,0.115697,0.0139875
3588.94,0.114537,0.0316662
3590.86,0.113378,0.0331005
3592.79,0.112218,0.0375602
3594.72,0.111059,0.0553822
3596.65,0.1099,0.0777583
3598.58,0.108741,0.0849187
3600.51,0.107581,0.0721788
3602.43,0.106422,0.0419398
3604.36,0.105262,0.016187
3606.29,0.104103,0.0025395
3608.22,0.102944,0.00177565
3610.15,0.101785,0.00137064
3612.08,0.100625,-0.00699221
3614.01,0.099466,-0.000390345
3615.93,0.0983064,-0.00332871
3617.86,0.0971473,-0.00411863
3619.79,0.0959877,0.00361499
3621.72,0.0948287,0.0053885
3623.65,0.093669,-0.00190265