File: olivine/FTIR/SC1-2-800C-7hr-c04-copper-baseline-low.CSV
wavenumber (/cm),baseline value (/cm),baseline-subtracted absorbance (/cm),
3450.08,0.168945,0.000638494
3452.01,0.16799,0.000319994
3453.94,0.167035,0.000676304
3455.87,0.166081,-0.000777544
3457.8,0.165126,0.0012597
3459.73,0.164171,0.00446733
3461.66,0.163216,0.00770027
3463.58,0.162262,0.011297
3465.51,0.161307,0.00499372
3467.44,0.160353,0.00260491
3469.37,0.159398,0.00815656
3471.3,0.158443,0.00905979
3473.23,0.157488,0.00779904
3475.15,0.156534,0.00915875
3477.08,0.155579,0.00987648
3479.01,0.154624,0.0142175
3480.94,0.153669,0.0163627
3482.87,0.152715,0.0203683
3484.8,0.15176,0.0165482
3486.72,0.150805,0.0175904
3488.65,0.14985,0.0228909
3490.58,0.148896,0.0221671
3492.51,0.147941,0.0158868
3494.44,0.146987,0.0127478
3496.37,0.146032,0.0200755
3498.3,0.145077,0.0277891
3500.22,0.144122,0.0236129
3502.15,0.143168,0.0163201
3504.08,0.142213,0.0155363
3506.01,0.141258,0.0154483
3507.94,0.140303,0.0116584
3509.87,0.139349,0.0175189
3511.8,0.138394,0.0311832
3513.72,0.137439,0.0338976
3515.65,0.136484,0.0333533
3517.58,0.13553,0.0405048
3519.51,0.134575,0.0447075
3521.44,0.13362,0.0503741
3523.37,0.132666,0.0599561
3525.3,0.131711,0.0582405
3527.22,0.130756,0.0518726
3529.15,0.129802,0.0501165
3531.08,0.128847,0.0484873
3533.01,0.127892,0.0459067
3534.94,0.126937,0.0399421
3536.87,0.125983,0.0362675
3538.8,0.125028,0.0323507
3540.72,0.124073,0.0304859
3542.65,0.123118,0.0329175
3544.58,0.122164,0.036497
3546.51,0.121209,0.0352576
3548.44,0.120254,0.0285916
3550.37,0.119299,0.0192
3552.29,0.118345,0.0205902
3554.22,0.11739,0.0312307
3556.15,0.116436,0.0414196
3558.08,0.115481,0.0537692
3560.01,0.114526,0.0726923
3561.94,0.113571,0.089015
3563.86,0.112617,0.0928671
3565.79,0.111662,0.0942294
3567.72,0.110707,0.121777
3569.65,0.109752,0.136247
3571.58,0.108798,0.142627
3573.51,0.107843,0.138114
3575.44,0.106888,0.114279
3577.36,0.105933,0.083314
3579.29,0.104979,0.0552556
3581.22,0.104024,0.0363825
3583.15,0.103069,0.0266164
3585.08,0.102115,0.0171176
3587.01,0.10116,0.0169735
3588.94,0.100205,0.0335398
3590.86,0.0992506,0.0344361
3592.79,0.0982957,0.0363743
3594.72,0.0973412,0.0577891
3596.65,0.0963862,0.0897962
3598.58,0.0954317,0.0984186
3600.51,0.0944768,0.0804573
3602.43,0.0935223,0.0438942
3604.36,0.0925673,0.0149478
3606.29,0.0916129,0.00324466
3608.22,0.0906579,0.00134862
3610.15,0.0897034,0.00276266
3612.08,0.0887485,-0.00289218
3614.01,0.087794,0.00392314
3615.93,0.086839,0.00173999
3617.86,0.0858846,-0.000271745
3619.79,0.0849296,0.00501681
3621.72,0.0839751,0.00395047
3623.65,0.0830202,-0.00106423