File: olivine/FTIR/SC1-2-800C-7hr-c04-copper.CSV
4.493401e+002,5.316259e-001
4.763391e+002,6.000000e+000
5.033381e+002,5.107897e-001
5.303371e+002,6.785158e-001
5.573361e+002,9.265739e-001
5.843350e+002,1.960578e+000
6.113340e+002,1.891969e+000
6.383330e+002,2.008437e+000
6.653320e+002,2.019844e+000
6.923309e+002,2.036963e+000
7.193300e+002,1.935998e+000
7.463289e+002,1.954351e+000
7.733279e+002,1.930976e+000
8.003269e+002,2.026483e+000
8.273259e+002,2.062530e+000
8.543248e+002,2.041371e+000
8.813238e+002,2.044961e+000
9.083228e+002,2.083228e+000
9.353218e+002,2.120992e+000
9.623207e+002,1.990752e+000
9.893197e+002,2.107713e+000
1.016319e+003,2.016895e+000
1.043318e+003,2.165605e+000
1.070317e+003,2.050621e+000
1.097316e+003,2.049092e+000
1.124315e+003,2.161976e+000
1.151314e+003,2.136445e+000
1.178313e+003,2.183153e+000
1.205312e+003,2.131232e+000
1.232311e+003,2.189685e+000
1.259310e+003,2.113857e+000
1.286308e+003,2.224957e+000
1.313307e+003,2.242413e+000
1.340307e+003,2.091173e+000
1.367305e+003,2.148423e+000
1.394304e+003,2.114942e+000
1.421303e+003,2.152603e+000
1.448302e+003,2.109859e+000
1.475301e+003,2.142417e+000
1.502300e+003,2.098237e+000
1.529299e+003,2.019975e+000
1.556298e+003,2.177863e+000
1.583297e+003,2.126433e+000
1.610296e+003,2.125217e+000
1.637295e+003,2.023664e+000
1.664294e+003,2.189380e+000
1.691293e+003,2.158535e+000
1.718292e+003,2.100190e+000
1.745291e+003,2.164730e+000
1.772290e+003,2.218144e+000
1.799289e+003,2.268166e+000
1.826288e+003,2.217326e+000
1.853287e+003,2.265304e+000
1.880286e+003,2.248219e+000
1.907285e+003,2.264494e+000
1.934284e+003,2.187446e+000
1.961283e+003,2.271307e+000
1.988282e+003,2.192070e+000
2.015281e+003,2.236603e+000
2.042280e+003,2.245095e+000
2.069279e+003,1.711599e+000
2.096278e+003,1.362066e+000
2.123277e+003,1.220801e+000
2.150276e+003,1.110889e+000
2.177275e+003,1.021348e+000
2.204274e+003,9.526615e-001
2.231273e+003,8.734933e-001
2.258272e+003,8.167556e-001
2.285271e+003,7.586432e-001
2.312270e+003,7.124475e-001
2.339269e+003,6.708861e-001
2.366268e+003,6.341425e-001
2.393267e+003,5.750334e-001
2.420266e+003,5.376824e-001
2.447265e+003,5.049316e-001
2.474264e+003,4.877213e-001
2.501262e+003,4.678199e-001
2.528261e+003,4.244851e-001
2.555260e+003,3.996121e-001
2.582260e+003,3.750423e-001
2.609259e+003,3.507968e-001
2.636258e+003,3.353356e-001
2.663256e+003,3.143418e-001
2.690255e+003,2.846740e-001
2.717254e+003,2.554644e-001
2.744253e+003,2.340478e-001
2.771252e+003,2.224594e-001
2.798251e+003,2.118070e-001
2.825250e+003,2.028255e-001
2.852249e+003,1.947265e-001
2.879248e+003,1.775942e-001
2.906247e+003,1.651854e-001
2.933246e+003,1.567774e-001
2.960245e+003,1.463596e-001
2.987244e+003,1.338642e-001
3.014243e+003,1.096147e-001
3.041242e+003,9.069248e-002
3.068241e+003,7.623795e-002
3.095240e+003,6.803462e-002
3.122239e+003,6.070974e-002
3.149238e+003,5.495062e-002
3.176237e+003,4.881231e-002
3.203236e+003,4.604294e-002
3.230235e+003,4.138300e-002
3.257234e+003,3.789352e-002
3.284233e+003,3.530644e-002
3.311232e+003,3.047259e-002
3.338231e+003,2.897025e-002
3.365230e+003,2.627752e-002
3.392229e+003,2.168868e-002
3.419228e+003,2.108900e-002
3.446227e+003,1.964985e-002
3.473226e+003,1.960267e-002
3.500225e+003,2.008699e-002
3.527224e+003,2.303384e-002
3.554223e+003,1.630503e-002
3.581222e+003,1.467977e-002
3.608221e+003,5.103352e-003
3.635220e+003,2.142954e-003
3.662219e+003,-9.987697e-004
3.689218e+003,1.022095e-003
3.716217e+003,-2.994381e-003
3.743216e+003,-9.917589e-003
3.770215e+003,-4.295948e-003
3.797214e+003,-6.056914e-003
3.824213e+003,-5.616851e-003
3.851211e+003,-1.141054e-002
3.878210e+003,-1.018508e-002
3.905209e+003,-8.156436e-003
3.932208e+003,-7.152207e-003
3.959208e+003,-1.077936e-002
3.986206e+003,-1.168405e-002
4.013205e+003,-1.265186e-002
4.040204e+003,-1.375583e-002
4.067203e+003,-1.407214e-002
4.094202e+003,-1.484977e-002
4.121201e+003,-1.592174e-002
4.148200e+003,-1.574887e-002
4.175199e+003,-1.654306e-002
4.202198e+003,-1.628922e-002
4.229197e+003,-1.714197e-002
4.256196e+003,-1.492898e-002
4.283195e+003,-1.618102e-002
4.310194e+003,-1.615251e-002
4.337193e+003,-1.678151e-002
4.364192e+003,-1.679391e-002
4.391191e+003,-1.772965e-002
4.418190e+003,-1.775042e-002
4.445189e+003,-1.749331e-002
4.472188e+003,-1.641699e-002
4.499187e+003,-1.773963e-002
4.526186e+003,-1.700008e-002
4.553185e+003,-1.626644e-002
4.580184e+003,-1.603722e-002
4.607183e+003,-1.477077e-002
4.634182e+003,-1.699151e-002
4.661181e+003,-1.610383e-002
4.688180e+003,-1.671188e-002
4.715179e+003,-1.813467e-002
4.742178e+003,-1.745550e-002
4.769177e+003,-1.576424e-002
4.796176e+003,-1.741402e-002
4.823175e+003,-1.839692e-002
4.850174e+003,-1.572957e-002
4.877173e+003,-1.651136e-002
4.904172e+003,-1.549466e-002
4.931171e+003,-1.825913e-002
4.958169e+003,-1.832841e-002
4.985168e+003,-1.549517e-002
5.012167e+003,-1.669365e-002
5.039167e+003,-1.539116e-002
5.066166e+003,-1.628635e-002
5.093165e+003,-1.464217e-002
5.120164e+003,-1.584967e-002
5.147163e+003,-1.755521e-002
5.174162e+003,-1.602617e-002
5.201161e+003,-1.601947e-002
5.228160e+003,-1.177009e-002
5.255158e+003,-1.387722e-002
5.282157e+003,-1.578213e-002
5.309156e+003,-1.576631e-002
5.336155e+003,-1.126473e-002
5.363154e+003,-1.205401e-002
5.390153e+003,-1.331898e-002
5.417152e+003,-1.210541e-002
5.444151e+003,-1.775369e-002
5.471150e+003,-1.283919e-002
5.498149e+003,-1.138849e-002
5.525148e+003,-1.270589e-002
5.552147e+003,-9.519512e-003
5.579146e+003,-8.372461e-003
5.606145e+003,-9.682760e-003
5.633144e+003,-7.342312e-003
5.660143e+003,-9.794958e-003
5.687142e+003,-9.538800e-003
5.714141e+003,-5.276355e-003
5.741140e+003,-2.920927e-003
5.768139e+003,-1.581289e-003
5.795138e+003,-6.080476e-004
5.822137e+003,7.872600e-003
5.849136e+003,7.167935e-003
5.876135e+003,8.335795e-003
5.903134e+003,1.027081e-002
5.930133e+003,1.556760e-002
5.957132e+003,1.728083e-002
5.984131e+003,1.869006e-002
6.011130e+003,3.283132e-002
6.038129e+003,2.800116e-002
6.065128e+003,3.921377e-002
6.092127e+003,4.762603e-002
6.119126e+003,4.760747e-002
6.146125e+003,6.017781e-002
6.173124e+003,6.207383e-002
6.200123e+003,7.588235e-002
6.227122e+003,8.606256e-002
6.254121e+003,8.895262e-002
6.281120e+003,1.061551e-001
6.308119e+003,1.158546e-001
6.335118e+003,1.385335e-001
6.362117e+003,1.354249e-001
6.389116e+003,1.545764e-001
6.416115e+003,1.678886e-001
6.443113e+003,1.901817e-001
6.470112e+003,1.982803e-001
6.497111e+003,2.290989e-001
6.524110e+003,2.437199e-001
6.551109e+003,2.682595e-001
6.578108e+003,2.780646e-001
6.605107e+003,2.928706e-001
6.632106e+003,3.405414e-001
6.659105e+003,3.725608e-001
6.686104e+003,3.869052e-001
6.713104e+003,4.262626e-001
6.740102e+003,4.658843e-001
6.767101e+003,4.829647e-001
6.794100e+003,5.253774e-001
6.821099e+003,5.145020e-001
6.848098e+003,5.817393e-001
6.875097e+003,6.355841e-001
6.902096e+003,6.289379e-001
6.929095e+003,7.029305e-001
6.956094e+003,7.012030e-001
6.983093e+003,7.556863e-001
7.010092e+003,7.256660e-001
7.037091e+003,7.852992e-001
7.064090e+003,8.859402e-001
7.091089e+003,8.323671e-001
7.118088e+003,8.930534e-001
7.145087e+003,9.251520e-001
7.172086e+003,1.018741e+000
7.199085e+003,1.069113e+000
7.226084e+003,1.073681e+000
7.253083e+003,1.140898e+000
7.280082e+003,1.218723e+000
7.307081e+003,1.117406e+000
7.334080e+003,1.287785e+000
7.361079e+003,1.522031e+000
7.388078e+003,1.249805e+000
7.415077e+003,1.557093e+000
7.442076e+003,1.590907e+000
7.469075e+003,1.464841e+000
7.496074e+003,1.071354e+000
7.523073e+003,1.373345e+000
7.550072e+003,1.357450e+000
7.577071e+003,1.641317e+000
7.604070e+003,6.000000e+000
7.631068e+003,1.934375e+000
7.658067e+003,1.307853e+000
7.685066e+003,2.255847e+000
7.712065e+003,1.300296e+000
7.739064e+003,1.336203e+000
7.766063e+003,1.617999e+000
7.793063e+003,1.947985e+000
7.820062e+003,1.361044e+000
7.847061e+003,6.000000e+000
7.874060e+003,1.529595e+000
7.901059e+003,1.529136e+000
7.928057e+003,6.000000e+000
7.955056e+003,1.106904e+000
7.982055e+003,8.138857e-001
8.009054e+003,1.207414e+000
8.036053e+003,1.110966e+000
8.063052e+003,9.786037e-001
8.090051e+003,1.731786e+000
8.117050e+003,6.000000e+000
8.144049e+003,6.000000e+000
8.171048e+003,1.070955e+000
8.198047e+003,1.182501e+000
8.225046e+003,1.415735e+000
8.252045e+003,1.245222e+000
8.279044e+003,6.000000e+000
8.306043e+003,9.315218e-001
8.333042e+003,1.399587e+000
8.360041e+003,2.293562e+000
8.387040e+003,4.098489e-001
8.414039e+003,6.000000e+000
8.441038e+003,5.826975e-001
8.468037e+003,6.000000e+000
8.495036e+003,6.550340e-001
8.500821e+003,6.000000e+000