File: olivine/FTIR/SC1-2-800C-7hr-c02-copper-baseline-low.CSV
wavenumber (/cm),baseline value (/cm),baseline-subtracted absorbance (/cm),
3450.08,0.15886,-0.00196305
3452.01,0.158054,-0.00143958
3453.94,0.157247,-0.0039915
3455.87,0.156441,-0.0039607
3457.8,0.155634,-0.00265904
3459.73,0.154828,0.00345278
3461.66,0.154021,0.0106849
3463.58,0.153215,0.011621
3465.51,0.152408,0.00275571
3467.44,0.151601,0.00174567
3469.37,0.150795,0.00619809
3471.3,0.149988,0.0104665
3473.23,0.149182,0.00872665
3475.15,0.148375,0.00763696
3477.08,0.147569,0.00708494
3479.01,0.146762,0.00715946
3480.94,0.145956,0.0130225
3482.87,0.145149,0.0148664
3484.8,0.144343,0.0150296
3486.72,0.143536,0.020333
3488.65,0.14273,0.0175459
3490.58,0.141923,0.0146128
3492.51,0.141117,0.0116604
3494.44,0.14031,0.00792391
3496.37,0.139504,0.00682438
3498.3,0.138697,0.0125153
3500.22,0.137891,0.00737194
3502.15,0.137084,0.000468038
3504.08,0.136278,0.0103666
3506.01,0.135471,0.0190266
3507.94,0.134665,0.0223629
3509.87,0.133858,0.0276713
3511.8,0.133052,0.032075
3513.72,0.132245,0.0348406
3515.65,0.131439,0.0328202
3517.58,0.130632,0.0353479
3519.51,0.129826,0.0429874
3521.44,0.129019,0.044263
3523.37,0.128213,0.0510889
3525.3,0.127406,0.0521433
3527.22,0.1266,0.0427488
3529.15,0.125793,0.0434741
3531.08,0.124987,0.0458813
3533.01,0.12418,0.0379276
3534.94,0.123374,0.0293559
3536.87,0.122567,0.0320111
3538.8,0.121761,0.0290473
3540.72,0.120954,0.0266287
3542.65,0.120148,0.0237781
3544.58,0.119341,0.0240892
3546.51,0.118535,0.0278136
3548.44,0.117728,0.0230815
3550.37,0.116921,0.0180383
3552.29,0.116115,0.0231104
3554.22,0.115308,0.032111
3556.15,0.114502,0.0367568
3558.08,0.113695,0.0473392
3560.01,0.112889,0.0653481
3561.94,0.112082,0.0804989
3563.86,0.111276,0.0825511
3565.79,0.110469,0.0855139
3567.72,0.109663,0.106579
3569.65,0.108856,0.121856
3571.58,0.10805,0.128447
3573.51,0.107243,0.123297
3575.44,0.106437,0.102523
3577.36,0.10563,0.0715769
3579.29,0.104824,0.0465426
3581.22,0.104017,0.0317081
3583.15,0.103211,0.0209625
3585.08,0.102404,0.0108211
3587.01,0.101598,0.0202504
3588.94,0.100791,0.0430599
3590.86,0.0999851,0.0385714
3592.79,0.0991783,0.0393115
3594.72,0.098372,0.0527651
3596.65,0.0975653,0.0736119
3598.58,0.096759,0.0859848
3600.51,0.0959523,0.0689807
3602.43,0.095146,0.0352973
3604.36,0.0943393,0.0139954
3606.29,0.093533,-0.000783586
3608.22,0.0927263,-0.000131677
3610.15,0.09192,0.00632291
3612.08,0.0911133,0.00321489
3614.01,0.090307,0.00478187
3615.93,0.0895003,-0.00376555
3617.86,0.088694,-0.00448543
3619.79,0.0878872,0.00631042
3621.72,0.087081,0.00447282
3623.65,0.0862742,-0.00162519