File: olivine/FTIR/SC1-2-800C-7hr-c08-copper-high-baseline.CSV
baseline wavenumber (cm-1),baseline absorbance (cm-1),baseline-subtracted absorbance (cm-1)
3399.943,0.212473,2.22045e-16
3401.871,0.211457,0.00221099
3403.8,0.21044,-0.00223169
3405.728,0.209424,-0.00266095
3407.657,0.208407,-0.00170841
3409.585,0.207391,-0.00259607
3411.514,0.206374,-0.000413365
3413.442,0.205358,-0.00272881
3415.371,0.204341,-0.00186168
3417.299,0.203325,-8.78643e-05
3419.228,0.202308,-0.000493349
3421.156,0.201292,-0.000319659
3423.085,0.200275,0.00215972
3425.013,0.199259,0.00378343
3426.942,0.198242,0.00343607
3428.87,0.197226,0.00564605
3430.799,0.196209,0.00592893
3432.727,0.195193,0.00507866
3434.656,0.194177,0.00552984
3436.584,0.19316,0.0123502
3438.513,0.192144,0.0174208
3440.441,0.191127,0.0149279
3442.37,0.190111,0.0160831
3444.298,0.189094,0.014315
3446.227,0.188078,0.0115331
3448.155,0.187061,0.0191308
3450.084,0.186045,0.0223137
3452.012,0.185029,0.0202747
3453.941,0.184012,0.0176004
3455.869,0.182996,0.020239
3457.798,0.181979,0.0195015
3459.726,0.180963,0.0200406
3461.655,0.179946,0.025613
3463.583,0.17893,0.0276365
3465.512,0.177913,0.0229472
3467.44,0.176897,0.024062
3469.369,0.17588,0.0288177
3471.297,0.174864,0.0306607
3473.226,0.173847,0.0313171
3475.154,0.172831,0.0307701
3477.083,0.171814,0.0280625
3479.011,0.170798,0.0304347
3480.94,0.169781,0.0377104
3482.868,0.168765,0.0403389
3484.797,0.167748,0.0354413
3486.725,0.166732,0.0355367
3488.654,0.165715,0.0374131
3490.582,0.164699,0.036209
3492.511,0.163682,0.0343257
3494.439,0.162666,0.0330252
3496.368,0.16165,0.0315892
3498.296,0.160633,0.0334312
3500.225,0.159617,0.0282678
3502.153,0.1586,0.02368
3504.082,0.157584,0.0283205
3506.01,0.156567,0.0326219
3507.939,0.155551,0.0305385
3509.867,0.154534,0.0356151
3511.796,0.153518,0.0443287
3513.724,0.152502,0.0447182
3515.653,0.151485,0.0442991
3517.581,0.150469,0.0515161
3519.51,0.149452,0.0580181
3521.438,0.148436,0.0621349
3523.367,0.147419,0.0683361
3525.295,0.146403,0.0692326
3527.224,0.145386,0.0634571
3529.152,0.14437,0.0617007
3531.081,0.143353,0.0583092
3533.009,0.142337,0.0512581
3534.938,0.14132,0.0440483
3536.866,0.140304,0.043054
3538.795,0.139287,0.0424287
3540.723,0.138271,0.04182
3542.652,0.137254,0.0404937
3544.58,0.136238,0.0383076
3546.509,0.135221,0.0347701
3548.437,0.134205,0.029687
3550.366,0.133188,0.0253677
3552.294,0.132172,0.0311307
3554.223,0.131155,0.0419523
3556.151,0.130139,0.0491497
3558.08,0.129122,0.0575433
3560.008,0.128106,0.0724406
3561.937,0.12709,0.0919557
3563.865,0.126073,0.100981
3565.794,0.125057,0.102375
3567.722,0.12404,0.124672
3569.651,0.123024,0.143699
3571.579,0.122007,0.151987
3573.508,0.120991,0.146223
3575.436,0.119975,0.120066
3577.365,0.118958,0.0839978
3579.293,0.117942,0.0550974
3581.222,0.116925,0.0383627
3583.15,0.115909,0.0306576
3585.079,0.114892,0.0202213
3587.007,0.113876,0.0176233
3588.936,0.112859,0.0363207
3590.864,0.111843,0.0404988
3592.793,0.110826,0.0448123
3594.721,0.10981,0.0657603
3596.65,0.108793,0.0895315
3598.578,0.107777,0.0915408
3600.507,0.10676,0.0715902
3602.435,0.105744,0.0396356
3604.364,0.104727,0.0170053
3606.292,0.103711,0.00652652
3608.221,0.102694,0.00561765
3610.149,0.101678,0.000184343
3612.078,0.100661,-0.007451
3614.006,0.0996451,7.58684e-05
3615.935,0.0986284,-0.0039731
3617.863,0.0976122,-0.00721193
3619.792,0.0965955,0.00124087
3621.72,0.0955793,0.0027074
3623.649,0.0945625,-0.0021381
3625.577,0.0935463,-0.00457484
3627.506,0.0925296,-0.0133706
3629.434,0.0915134,0.00295391
3631.363,0.0904967,0.0044624
3633.291,0.0894805,-0.00574499
3635.22,0.0884637,-0.00130664
3637.148,0.0874475,-0.00136139
3639.077,0.0864308,-0.00328816
3641.005,0.0854146,-0.00510173
3642.934,0.0843978,-0.00516455
3644.862,0.0833816,-0.0115576
3646.791,0.0823649,-0.0209745
3648.719,0.0813487,-0.0143938
3650.648,0.080332,0.00992326
3652.576,0.0793158,0.00588488
3654.505,0.078299,-0.0141491
3656.433,0.0772828,-0.00475326
3658.362,0.0762661,0.00160008
3660.29,0.0752499,-0.00294573
3662.219,0.0742332,-0.000203537
3664.147,0.0732169,-0.00206108
3666.076,0.0722002,-0.011527
3668.004,0.071184,-0.0175441
3669.933,0.0701673,0.000198638
3671.861,0.0691511,0.0128468
3673.79,0.0681343,-0.00481583
3675.718,0.0671181,0.0118544
3677.647,0.0661014,0.0118401
3679.575,0.0650852,0.00352342
3681.504,0.0640685,0.00465286
3683.432,0.0630523,0.00264925
3685.361,0.0620355,-0.000205947
3687.289,0.0610193,-0.00932165
3689.218,0.0600026,0.00421909
3691.146,0.0589864,0.0152403
3693.075,0.0579696,0.0129108
3695.003,0.0569534,0.00588746
3696.932,0.0559367,0.0077553
3698.86,0.0549205,0.0087715