File: olivine/FTIR/SC1-2-800C-7hr-c02-copper-low-baseline.CSV
baseline wavenumber (cm-1),baseline absorbance (cm-1),baseline-subtracted absorbance (cm-1)
3199.38,0.283956,1.28231e-14
3201.308,0.281809,-0.000823501
3203.236,0.279673,0.00260015
3205.165,0.277545,0.00626155
3207.093,0.275429,0.00830318
3209.02,0.273322,0.00926098
3210.95,0.271224,0.0100409
3212.88,0.269137,0.0110527
3214.81,0.267058,0.0116827
3216.736,0.26499,0.00903713
3218.664,0.262933,0.0111836
3220.593,0.260884,0.0138859
3222.52,0.258846,0.0148364
3224.449,0.256818,0.0190731
3226.38,0.254799,0.0168113
3228.31,0.252791,0.0120792
3230.235,0.250791,0.0101196
3232.164,0.248801,0.0115569
3234.092,0.246823,0.0154546
3236.02,0.244853,0.0193425
3237.949,0.242894,0.0199491
3239.877,0.240945,0.0167213
3241.81,0.239004,0.015015
3243.73,0.237075,0.0182135
3245.663,0.235154,0.0221869
3247.592,0.233243,0.0182818
3249.52,0.231343,0.0166421
3251.448,0.229453,0.0164175
3253.377,0.227572,0.0159479
3255.305,0.225701,0.0151218
3257.23,0.22384,0.0165565
3259.16,0.221989,0.0212771
3261.091,0.220147,0.0216374
3263.02,0.218315,0.0186946
3264.948,0.216494,0.0208336
3266.88,0.214683,0.0269789
3268.805,0.21288,0.0281787
3270.73,0.211088,0.0217294
3272.66,0.209306,0.0229025
3274.591,0.207533,0.0266971
3276.52,0.205771,0.0291008
3278.448,0.204017,0.0294401
3280.38,0.202275,0.0265599
3282.304,0.200542,0.0237786
3284.23,0.198819,0.025079
3286.16,0.197106,0.0295727
3288.09,0.195402,0.0316348
3290.02,0.193708,0.0272169
3291.947,0.192024,0.0258014
3293.875,0.190351,0.0318049
3295.804,0.188686,0.0325719
3297.732,0.187032,0.0316449
3299.66,0.185388,0.0314712
3301.59,0.183753,0.0352066
3303.518,0.182128,0.0427684
3305.447,0.180513,0.0400611
3307.375,0.178908,0.0354196
3309.303,0.177314,0.0341771
3311.232,0.175728,0.038205
3313.16,0.174153,0.0391882
3315.09,0.172587,0.0319576
3317.02,0.171031,0.028596
3318.946,0.169485,0.0347124
3320.875,0.167949,0.0347133
3322.803,0.166423,0.0354822
3324.73,0.164907,0.0379239
3326.66,0.1634,0.0369571
3328.59,0.161904,0.0376997
3330.52,0.160416,0.0427176
3332.445,0.15894,0.0445173
3334.37,0.157472,0.042583
3336.302,0.156015,0.0437659
3338.23,0.154567,0.0392896
3340.159,0.15313,0.0405796
3342.09,0.151702,0.0428566
3344.02,0.150284,0.041212
3345.945,0.148876,0.0427238
3347.873,0.147478,0.046313
3349.802,0.146089,0.0456915
3351.73,0.144711,0.0394214
3353.659,0.143342,0.0423436
3355.587,0.141984,0.0493968
3357.52,0.140634,0.0515161
3359.44,0.139296,0.049894
3361.373,0.137966,0.0503845
3363.302,0.136646,0.0547076
3365.23,0.135337,0.051258
3367.158,0.134038,0.0484766
3369.087,0.132747,0.0503365
3371.015,0.131468,0.0488577
3372.94,0.130197,0.0488055
3374.87,0.128937,0.0514437
3376.801,0.127686,0.0511057
3378.73,0.126446,0.0525145
3380.658,0.125215,0.0506867
3382.586,0.123994,0.0470091
3384.515,0.122783,0.0484109
3386.44,0.121582,0.0552825
3388.37,0.12039,0.0592609
3390.3,0.119209,0.0520971
3392.23,0.118037,0.0470487
3394.157,0.116876,0.050402
3396.086,0.115723,0.0513361
3398.014,0.114581,0.0571704
3399.94,0.113449,0.0679205
3401.87,0.112327,0.0666602
3403.8,0.111214,0.0605691
3405.728,0.110111,0.0580565
3407.657,0.109018,0.0566967
3409.585,0.107935,0.0568245
3411.514,0.106862,0.0614291
3413.442,0.105799,0.0623011
3415.37,0.104745,0.0604717
3417.3,0.103701,0.0608185
3419.228,0.102667,0.0596998
3421.156,0.101644,0.0610905
3423.085,0.100629,0.0559773
3425.013,0.0996252,0.0567481
3426.942,0.0986305,0.0627568
3428.87,0.0976462,0.0670286
3430.8,0.0966712,0.0679277
3432.73,0.0957065,0.0657533
3434.656,0.0947512,0.0654947
3436.58,0.0938063,0.0675137
3438.513,0.0928707,0.0686522
3440.441,0.0919454,0.0687241
3442.37,0.0910296,0.0702397
3444.298,0.090124,0.0680461
3446.23,0.0892278,0.0688764
3448.155,0.0883419,0.0729413
3450.08,0.0874654,0.0694313
3452.012,0.0865993,0.0700147
3453.941,0.0857425,0.0675128
3455.869,0.084896,0.0675838
3457.798,0.0840589,0.0689159
3459.73,0.0832321,0.0750482
3461.655,0.0824147,0.082291
3463.583,0.0816076,0.0832279
3465.512,0.08081,0.0743535
3467.44,0.0800225,0.0733246
3469.369,0.0792446,0.0777483
3471.297,0.0784768,0.0819782
3473.23,0.0777186,0.0801899
3475.15,0.0769705,0.0790419
3477.083,0.076232,0.0784217
3479.011,0.0755036,0.0784183
3480.94,0.0747847,0.0841935
3482.868,0.0740761,0.0859397
3484.797,0.0733769,0.0859954
3486.725,0.072688,0.0911814
3488.65,0.0720085,0.0882671
3490.58,0.0713392,0.085197
3492.511,0.0706795,0.0820976
3494.44,0.0700299,0.0782044
3496.368,0.0693898,0.0769382
3498.296,0.0687599,0.0824528
3500.225,0.0681396,0.077123
3502.153,0.0675294,0.070023
3504.08,0.0669287,0.0797156
3506.01,0.0663382,0.0881597
3507.94,0.0657573,0.0912703
3509.867,0.0651865,0.0963432
3511.796,0.0646252,0.100501
3513.724,0.0640741,0.103012
3515.653,0.0635325,0.100726
3517.58,0.0630011,0.102979
3519.51,0.0624792,0.110334
3521.438,0.0619675,0.111315
3523.367,0.0614654,0.117836
3525.295,0.0609733,0.118576
3527.224,0.0604909,0.108858
3529.152,0.0600185,0.109249
3531.08,0.0595558,0.111312
3533.009,0.0591031,0.103005
3534.938,0.0586601,0.0940694
3536.866,0.0582271,0.0963513
3538.795,0.0578037,0.0930041
3540.723,0.0573905,0.0901924
3542.652,0.0569868,0.0869388
3544.58,0.0565932,0.0868372
3546.509,0.0562093,0.0901388
3548.437,0.0558354,0.0849743
3550.366,0.0554711,0.0794887
3552.29,0.0551169,0.0841086
3554.223,0.0547724,0.092647
3556.151,0.0544379,0.0968211
3558.08,0.0541131,0.106922
3560.008,0.0537982,0.124439
3561.937,0.0534931,0.139088
3563.865,0.053198,0.140629
3565.79,0.0529125,0.143071
3567.722,0.0526371,0.163605
3569.651,0.0523714,0.178341
3571.579,0.0521156,0.184381
3573.508,0.0518696,0.178671
3575.44,0.0516335,0.157327
3577.365,0.0514072,0.1258
3579.29,0.0511908,0.100176
3581.222,0.0509842,0.0847413
3583.15,0.0507875,0.073386
3585.079,0.0506006,0.0626249
3587.007,0.0504236,0.0714248
3588.94,0.0502564,0.0935949
3590.864,0.0500991,0.0884574
3592.79,0.0499516,0.0885383
3594.72,0.049814,0.101323
3596.65,0.0496862,0.121491
3598.578,0.0495683,0.133176
3600.507,0.0494601,0.115473
3602.435,0.0493619,0.0810814
3604.364,0.0492735,0.0590612
3606.292,0.049195,0.0435544
3608.22,0.0491263,0.0434684
3610.15,0.0490674,0.0491755
3612.078,0.0490184,0.0453097
3614.006,0.0489793,0.0461096
3615.935,0.04895,0.0367848
3617.863,0.0489305,0.035278
3619.792,0.0489209,0.0452768
3621.72,0.0489211,0.0426326
3623.65,0.0489312,0.0357178
3625.577,0.0489512,0.031976
3627.506,0.048981,0.0298791
3629.434,0.0490206,0.0553106
3631.363,0.0490701,0.0417475
3633.29,0.0491294,0.0275037
3635.22,0.0491986,0.0317606
3637.15,0.0492776,0.0242133
3639.077,0.0493665,0.0185236
3641.005,0.0494652,0.0206144
3642.934,0.0495738,0.0224484
3644.862,0.0496922,0.0116121
3646.79,0.0498205,0.00589696
3648.719,0.0499586,0.0254716
3650.65,0.0501066,0.0472626
3652.58,0.0502643,0.035663
3654.505,0.050432,0.0131521
3656.433,0.0506095,0.0152149
3658.362,0.0507969,0.0143956
3660.29,0.0509941,0.00731864
3662.219,0.0512012,0.00787364
3664.147,0.051418,0.00583758
3666.08,0.0516448,-4.77775e-05
3668,0.0518814,-0.00479341
3669.933,0.0521279,0.00743784
3671.861,0.0523841,0.0149123
3673.79,0.0526503,-0.00367512
3675.718,0.0529262,0.0158897
3677.647,0.0532121,0.0226415
3679.575,0.0535078,0.0144395
3681.5,0.0538134,0.00895445
3683.43,0.0541287,0.00367741
3685.361,0.054454,0.0018437
3687.289,0.054789,-0.00731612
3689.218,0.055134,0.00616065
3691.15,0.0554887,0.0181983
3693.075,0.0558534,0.0148485
3695,0.0562278,0.00494087
3696.93,0.0566122,0.00265536
3698.86,0.0570063,0.00226129