File: olivine/FTIR/SC1-2-800C-7hr-c04-copper-high-baseline.CSV
baseline wavenumber (cm-1),baseline absorbance (cm-1),baseline-subtracted absorbance (cm-1)
3399.943,0.186698,3.33067e-16
3401.871,0.185802,-0.0051963
3403.8,0.184906,-0.00977438
3405.728,0.184009,-0.00496931
3407.657,0.183113,-0.00566085
3409.585,0.182216,-0.0073287
3411.514,0.18132,-0.00430488
3413.442,0.180424,-0.00466311
3415.371,0.179527,-0.00693997
3417.299,0.178631,-0.00813996
3419.228,0.177734,-0.0049349
3421.156,0.176838,0.000548673
3423.085,0.175941,-0.00211431
3425.013,0.175045,-0.00847755
3426.942,0.174148,-0.00557235
3428.87,0.173252,2.65181e-06
3430.799,0.172356,0.000387176
3432.727,0.171459,0.000718825
3434.656,0.170563,0.00070706
3436.584,0.169667,0.00232714
3438.513,0.16877,0.00113131
3440.441,0.167874,-0.00353239
3442.37,0.166977,0.00294978
3444.298,0.166081,0.00702791
3446.227,0.165184,0.000341429
3448.155,0.164288,0.00395226
3450.084,0.163391,0.00619189
3452.012,0.162495,0.00581511
3453.941,0.161599,0.00611311
3455.869,0.160702,0.00460098
3457.798,0.159806,0.00657991
3459.726,0.15891,0.00972926
3461.655,0.158013,0.0129039
3463.583,0.157117,0.0164423
3465.512,0.15622,0.0100807
3467.44,0.155324,0.00763366
3469.369,0.154427,0.013127
3471.297,0.153531,0.0139719
3473.226,0.152634,0.0126529
3475.154,0.151738,0.0139543
3477.083,0.150841,0.0146137
3479.011,0.149945,0.0188965
3480.94,0.149049,0.0209834
3482.868,0.148152,0.0249307
3484.797,0.147256,0.0210522
3486.725,0.14636,0.0220362
3488.654,0.145463,0.0272784
3490.582,0.144567,0.0264963
3492.511,0.14367,0.0201577
3494.439,0.142774,0.0169604
3496.368,0.141877,0.0242298
3498.296,0.140981,0.0318851
3500.225,0.140084,0.0276506
3502.153,0.139188,0.0202995
3504.082,0.138292,0.0194574
3506.01,0.137395,0.0193112
3507.939,0.136499,0.0154629
3509.867,0.135603,0.0212651
3511.796,0.134706,0.0348711
3513.724,0.13381,0.0375272
3515.653,0.132913,0.0369246
3517.581,0.132017,0.0440178
3519.51,0.13112,0.0481622
3521.438,0.130224,0.0537705
3523.367,0.129327,0.0632942
3525.295,0.128431,0.0615204
3527.224,0.127535,0.0550941
3529.152,0.126638,0.0532798
3531.081,0.125742,0.0515923
3533.009,0.124845,0.0489534
3534.938,0.123949,0.0429304
3536.866,0.123053,0.0391976
3538.795,0.122156,0.0352225
3540.723,0.12126,0.0332994
3542.652,0.120363,0.0356727
3544.58,0.119467,0.0391939
3546.509,0.11857,0.0378961
3548.437,0.117674,0.0311719
3550.366,0.116777,0.021722
3552.294,0.115881,0.0230539
3554.223,0.114985,0.0336361
3556.151,0.114088,0.0437667
3558.08,0.113192,0.056058
3560.008,0.112296,0.0749228
3561.937,0.111399,0.0911872
3563.865,0.110503,0.094981
3565.794,0.109606,0.096285
3567.722,0.10871,0.123775
3569.651,0.107813,0.138186
3571.579,0.106917,0.144508
3573.508,0.10602,0.139936
3575.436,0.105124,0.116043
3577.365,0.104228,0.0850198
3579.293,0.103331,0.0569031
3581.222,0.102435,0.0379718
3583.15,0.101539,0.0281474
3585.079,0.100642,0.0185903
3587.007,0.0997457,0.0183879
3588.936,0.098849,0.0348959
3590.864,0.0979528,0.0357339
3592.793,0.0970562,0.0376137
3594.721,0.09616,0.0589703
3596.65,0.0952633,0.0909191
3598.578,0.0943671,0.0994832
3600.507,0.0934705,0.0814636
3602.435,0.0925743,0.0448423
3604.364,0.0916776,0.0158374
3606.292,0.0907815,0.00407608
3608.221,0.0898848,0.00212173
3610.149,0.0889886,0.00347749
3612.078,0.088092,-0.00223567
3614.006,0.0871958,0.00452137
3615.935,0.0862991,0.00227992
3617.863,0.0854029,0.000209896
3619.792,0.0845063,0.00544014
3621.72,0.0836101,0.00431552
3623.649,0.0827134,-0.000757489
3625.577,0.0818172,-0.00657461
3627.506,0.0809206,-0.0191011
3629.434,0.0800244,0.00270941
3631.363,0.0791277,0.00473041
3633.291,0.0782316,-0.00363554
3635.22,0.0773349,-0.00029045
3637.148,0.0764387,-0.00278202
3639.077,0.0755421,-0.001616
3641.005,0.0746459,-0.000115245
3642.934,0.0737492,-0.000766564
3644.862,0.072853,-0.00781534
3646.791,0.0719564,-0.0207036
3648.719,0.0710602,-0.0154027
3650.648,0.0701635,0.00798755
3652.576,0.0692673,0.00469418
3654.505,0.0683707,-0.0184975
3656.433,0.0674745,-0.0117574
3658.362,0.0665778,-0.00186834
3660.29,0.0656816,-0.00460343
3662.219,0.064785,-0.00361906
3664.147,0.0638888,-0.00432239
3666.076,0.0629921,-0.0113723
3668.004,0.062096,-0.0125163
3669.933,0.0611993,0.00908424
3671.861,0.0603031,0.0138233
3673.79,0.0594065,-0.0102756
3675.718,0.0585103,0.0116654
3677.647,0.0576136,0.0199959
3679.575,0.0567174,0.0114472
3681.504,0.0558208,0.0124987
3683.432,0.0549246,0.00774188
3685.361,0.0540279,0.00143321
3687.289,0.0531317,-0.00418419
3689.218,0.0522351,0.0191445
3691.146,0.0513389,0.0240329
3693.075,0.0504422,0.0117143
3695.003,0.049546,0.00190281
3696.932,0.0486494,0.00274624
3698.86,0.0477532,0.00364243