File: olivine/FTIR/SC1-2-800C-7hr-background-copper.CSV
4.493401e+002,1.245602e-002
4.763391e+002,1.064248e-002
5.033381e+002,1.328637e-002
5.303371e+002,2.950650e-002
5.573361e+002,7.050666e-002
5.843350e+002,2.870948e-001
6.113340e+002,7.004036e-001
6.383330e+002,1.100226e+000
6.653320e+002,1.438623e+000
6.923309e+002,1.925888e+000
7.193300e+002,2.261580e+000
7.463289e+002,2.400032e+000
7.733279e+002,2.574126e+000
8.003269e+002,2.614096e+000
8.273259e+002,2.920869e+000
8.543248e+002,3.130228e+000
8.813238e+002,3.274107e+000
9.083228e+002,3.498168e+000
9.353218e+002,3.679042e+000
9.623207e+002,3.778011e+000
9.893197e+002,3.852219e+000
1.016319e+003,3.692225e+000
1.043318e+003,3.682152e+000
1.070317e+003,3.877501e+000
1.097316e+003,4.094171e+000
1.124315e+003,4.488251e+000
1.151314e+003,4.655128e+000
1.178313e+003,4.889811e+000
1.205312e+003,5.086836e+000
1.232311e+003,5.234894e+000
1.259310e+003,4.871249e+000
1.286308e+003,5.250721e+000
1.313307e+003,5.234889e+000
1.340307e+003,4.660438e+000
1.367305e+003,5.169970e+000
1.394304e+003,4.122694e+000
1.421303e+003,4.323084e+000
1.448302e+003,4.304078e+000
1.475301e+003,3.650573e+000
1.502300e+003,4.575903e+000
1.529299e+003,4.453036e+000
1.556298e+003,3.028370e+000
1.583297e+003,5.429761e+000
1.610296e+003,4.967030e+000
1.637295e+003,3.319017e+000
1.664294e+003,4.734585e+000
1.691293e+003,5.031689e+000
1.718292e+003,2.879194e+000
1.745291e+003,4.700587e+000
1.772290e+003,3.513360e+000
1.799289e+003,4.942262e+000
1.826288e+003,4.997708e+000
1.853287e+003,5.779954e+000
1.880286e+003,5.727339e+000
1.907285e+003,5.498988e+000
1.934284e+003,5.624515e+000
1.961283e+003,5.578001e+000
1.988282e+003,5.430693e+000
2.015281e+003,5.392886e+000
2.042280e+003,5.371340e+000
2.069279e+003,5.390512e+000
2.096278e+003,5.334145e+000
2.123277e+003,5.280812e+000
2.150276e+003,5.229196e+000
2.177275e+003,5.172370e+000
2.204274e+003,5.113336e+000
2.231273e+003,5.057971e+000
2.258272e+003,4.923241e+000
2.285271e+003,4.844540e+000
2.312270e+003,3.230141e+000
2.339269e+003,1.670906e+000
2.366268e+003,1.316978e+000
2.393267e+003,4.750952e+000
2.420266e+003,4.695790e+000
2.447265e+003,4.647906e+000
2.474264e+003,4.591093e+000
2.501262e+003,4.536314e+000
2.528261e+003,4.479571e+000
2.555260e+003,4.422092e+000
2.582260e+003,4.363893e+000
2.609259e+003,4.311791e+000
2.636258e+003,4.250528e+000
2.663256e+003,4.193540e+000
2.690255e+003,4.129973e+000
2.717254e+003,4.076218e+000
2.744253e+003,4.009613e+000
2.771252e+003,3.955755e+000
2.798251e+003,3.886819e+000
2.825250e+003,3.810514e+000
2.852249e+003,3.689059e+000
2.879248e+003,3.622965e+000
2.906247e+003,3.508191e+000
2.933246e+003,3.431029e+000
2.960245e+003,3.363081e+000
2.987244e+003,3.406402e+000
3.014243e+003,3.315752e+000
3.041242e+003,3.300360e+000
3.068241e+003,3.208074e+000
3.095240e+003,3.104816e+000
3.122239e+003,2.988260e+000
3.149238e+003,2.931669e+000
3.176237e+003,2.816842e+000
3.203236e+003,2.724182e+000
3.230235e+003,2.617997e+000
3.257234e+003,2.580918e+000
3.284233e+003,2.548437e+000
3.311232e+003,2.493249e+000
3.338231e+003,2.445346e+000
3.365230e+003,2.383363e+000
3.392229e+003,2.322562e+000
3.419228e+003,2.265921e+000
3.446227e+003,2.112178e+000
3.473226e+003,2.203442e+000
3.500225e+003,2.197228e+000
3.527224e+003,2.067136e+000
3.554223e+003,2.219748e+000
3.581222e+003,2.276928e+000
3.608221e+003,1.730042e+000
3.635220e+003,2.185136e+000
3.662219e+003,2.435533e+000
3.689218e+003,1.320856e+000
3.716217e+003,2.176509e+000
3.743216e+003,1.251893e+000
3.770215e+003,1.751406e+000
3.797214e+003,1.754895e+000
3.824213e+003,1.833954e+000
3.851211e+003,1.324687e+000
3.878210e+003,1.893980e+000
3.905209e+003,1.484699e+000
3.932208e+003,1.754688e+000
3.959208e+003,1.997721e+000
3.986206e+003,2.008124e+000
4.013205e+003,1.966243e+000
4.040204e+003,1.939242e+000
4.067203e+003,1.906630e+000
4.094202e+003,1.871646e+000
4.121201e+003,1.833496e+000
4.148200e+003,1.796038e+000
4.175199e+003,1.765950e+000
4.202198e+003,1.729255e+000
4.229197e+003,1.697961e+000
4.256196e+003,1.666886e+000
4.283195e+003,1.635820e+000
4.310194e+003,1.602908e+000
4.337193e+003,1.572170e+000
4.364192e+003,1.546355e+000
4.391191e+003,1.517771e+000
4.418190e+003,1.491571e+000
4.445189e+003,1.465229e+000
4.472188e+003,1.438018e+000
4.499187e+003,1.411577e+000
4.526186e+003,1.386658e+000
4.553185e+003,1.365568e+000
4.580184e+003,1.343856e+000
4.607183e+003,1.322635e+000
4.634182e+003,1.299278e+000
4.661181e+003,1.274090e+000
4.688180e+003,1.257010e+000
4.715179e+003,1.231558e+000
4.742178e+003,1.212539e+000
4.769177e+003,1.196242e+000
4.796176e+003,1.177134e+000
4.823175e+003,1.154141e+000
4.850174e+003,1.138474e+000
4.877173e+003,1.120068e+000
4.904172e+003,1.101470e+000
4.931171e+003,1.081084e+000
4.958169e+003,1.059488e+000
4.985168e+003,1.043505e+000
5.012167e+003,1.026980e+000
5.039167e+003,1.008120e+000
5.066166e+003,9.928789e-001
5.093165e+003,9.712662e-001
5.120164e+003,9.488329e-001
5.147163e+003,9.374436e-001
5.174162e+003,9.176665e-001
5.201161e+003,9.037794e-001
5.228160e+003,8.611817e-001
5.255158e+003,7.922516e-001
5.282157e+003,8.355017e-001
5.309156e+003,8.059245e-001
5.336155e+003,7.427271e-001
5.363154e+003,7.698906e-001
5.390153e+003,7.828969e-001
5.417152e+003,7.630944e-001
5.444151e+003,6.842866e-001
5.471150e+003,7.327191e-001
5.498149e+003,7.180016e-001
5.525148e+003,7.094221e-001
5.552147e+003,6.887821e-001
5.579146e+003,6.826579e-001
5.606145e+003,6.671032e-001
5.633144e+003,6.545246e-001
5.660143e+003,6.383412e-001
5.687142e+003,6.184339e-001
5.714141e+003,6.098506e-001
5.741140e+003,5.946277e-001
5.768139e+003,5.788522e-001
5.795138e+003,5.630160e-001
5.822137e+003,5.548260e-001
5.849136e+003,5.388636e-001
5.876135e+003,5.289283e-001
5.903134e+003,5.125974e-001
5.930133e+003,5.022925e-001
5.957132e+003,4.876021e-001
5.984131e+003,4.719157e-001
6.011130e+003,4.668337e-001
6.038129e+003,4.492134e-001
6.065128e+003,4.374374e-001
6.092127e+003,4.320400e-001
6.119126e+003,4.181911e-001
6.146125e+003,4.100579e-001
6.173124e+003,4.010229e-001
6.200123e+003,3.859881e-001
6.227122e+003,3.749330e-001
6.254121e+003,3.655627e-001
6.281120e+003,3.585590e-001
6.308119e+003,3.450491e-001
6.335118e+003,3.389058e-001
6.362117e+003,3.235620e-001
6.389116e+003,3.162704e-001
6.416115e+003,3.075455e-001
6.443113e+003,3.015481e-001
6.470112e+003,2.882191e-001
6.497111e+003,2.844838e-001
6.524110e+003,2.756789e-001
6.551109e+003,2.669260e-001
6.578108e+003,2.602145e-001
6.605107e+003,2.529695e-001
6.632106e+003,2.446397e-001
6.659105e+003,2.373827e-001
6.686104e+003,2.289133e-001
6.713104e+003,2.236365e-001
6.740102e+003,2.163117e-001
6.767101e+003,2.131629e-001
6.794100e+003,2.040804e-001
6.821099e+003,1.948382e-001
6.848098e+003,1.895527e-001
6.875097e+003,1.902063e-001
6.902096e+003,1.764813e-001
6.929095e+003,1.767883e-001
6.956094e+003,1.670294e-001
6.983093e+003,1.632263e-001
7.010092e+003,1.567859e-001
7.037091e+003,1.534789e-001
7.064090e+003,1.493828e-001
7.091089e+003,1.427494e-001
7.118088e+003,1.277323e-001
7.145087e+003,1.264867e-001
7.172086e+003,1.266824e-001
7.199085e+003,1.234082e-001
7.226084e+003,1.123616e-001
7.253083e+003,1.107769e-001
7.280082e+003,1.079102e-001
7.307081e+003,9.621596e-002
7.334080e+003,1.028467e-001
7.361079e+003,9.585725e-002
7.388078e+003,9.299070e-002
7.415077e+003,9.134153e-002
7.442076e+003,9.247292e-002
7.469075e+003,8.584750e-002
7.496074e+003,8.199238e-002
7.523073e+003,8.097101e-002
7.550072e+003,7.317425e-002
7.577071e+003,7.269298e-002
7.604070e+003,7.141484e-002
7.631068e+003,6.559827e-002
7.658067e+003,6.402127e-002
7.685066e+003,6.321246e-002
7.712065e+003,6.018348e-002
7.739064e+003,5.660874e-002
7.766063e+003,5.259689e-002
7.793063e+003,5.153831e-002
7.820062e+003,5.089132e-002
7.847061e+003,4.285909e-002
7.874060e+003,4.313096e-002
7.901059e+003,3.937115e-002
7.928057e+003,3.806271e-002
7.955056e+003,3.455653e-002
7.982055e+003,2.979914e-002
8.009054e+003,3.187897e-002
8.036053e+003,2.863714e-002
8.063052e+003,2.490503e-002
8.090051e+003,2.805440e-002
8.117050e+003,2.430954e-002
8.144049e+003,2.150566e-002
8.171048e+003,1.829045e-002
8.198047e+003,1.994355e-002
8.225046e+003,2.043015e-002
8.252045e+003,1.643064e-002
8.279044e+003,1.489802e-002
8.306043e+003,1.482693e-002
8.333042e+003,1.192686e-002
8.360041e+003,1.227407e-002
8.387040e+003,1.092633e-002
8.414039e+003,9.998067e-003
8.441038e+003,9.975987e-003
8.468037e+003,9.619273e-003
8.495036e+003,8.800737e-003
8.500821e+003,7.916727e-003