File: olivine/FTIR/SC1-2-800C-7hr-c08-copper.CSV
4.493401e+002,2.017094e-001
4.763391e+002,2.382785e-001
5.033381e+002,2.363199e-001
5.303371e+002,5.116001e-001
5.573361e+002,1.011472e+000
5.843350e+002,1.364131e+000
6.113340e+002,1.663289e+000
6.383330e+002,1.831559e+000
6.653320e+002,1.883251e+000
6.923309e+002,1.960107e+000
7.193300e+002,1.963722e+000
7.463289e+002,1.982314e+000
7.733279e+002,1.998846e+000
8.003269e+002,2.011339e+000
8.273259e+002,2.043009e+000
8.543248e+002,1.979920e+000
8.813238e+002,2.010213e+000
9.083228e+002,2.063646e+000
9.353218e+002,2.064475e+000
9.623207e+002,2.127718e+000
9.893197e+002,2.129652e+000
1.016319e+003,2.124481e+000
1.043318e+003,2.054972e+000
1.070317e+003,2.165062e+000
1.097316e+003,2.104172e+000
1.124315e+003,2.101584e+000
1.151314e+003,2.143127e+000
1.178313e+003,2.243401e+000
1.205312e+003,2.174834e+000
1.232311e+003,2.176020e+000
1.259310e+003,2.079380e+000
1.286308e+003,2.144928e+000
1.313307e+003,2.135802e+000
1.340307e+003,2.086349e+000
1.367305e+003,2.170018e+000
1.394304e+003,2.166402e+000
1.421303e+003,2.122482e+000
1.448302e+003,2.072924e+000
1.475301e+003,2.082296e+000
1.502300e+003,2.096828e+000
1.529299e+003,2.127769e+000
1.556298e+003,2.105908e+000
1.583297e+003,2.251831e+000
1.610296e+003,2.130737e+000
1.637295e+003,2.076536e+000
1.664294e+003,2.268938e+000
1.691293e+003,2.212403e+000
1.718292e+003,2.263956e+000
1.745291e+003,2.271091e+000
1.772290e+003,2.339574e+000
1.799289e+003,2.301371e+000
1.826288e+003,2.365664e+000
1.853287e+003,2.303304e+000
1.880286e+003,2.337602e+000
1.907285e+003,2.373662e+000
1.934284e+003,2.336558e+000
1.961283e+003,2.285764e+000
1.988282e+003,2.195746e+000
2.015281e+003,2.277578e+000
2.042280e+003,2.347682e+000
2.069279e+003,1.584966e+000
2.096278e+003,1.174592e+000
2.123277e+003,1.007431e+000
2.150276e+003,9.031983e-001
2.177275e+003,8.138582e-001
2.204274e+003,7.335926e-001
2.231273e+003,6.595675e-001
2.258272e+003,5.953678e-001
2.285271e+003,5.390751e-001
2.312270e+003,4.927244e-001
2.339269e+003,4.538457e-001
2.366268e+003,4.106854e-001
2.393267e+003,3.504007e-001
2.420266e+003,3.134031e-001
2.447265e+003,2.817305e-001
2.474264e+003,2.628359e-001
2.501262e+003,2.433458e-001
2.528261e+003,1.982198e-001
2.555260e+003,1.726431e-001
2.582260e+003,1.488675e-001
2.609259e+003,1.238770e-001
2.636258e+003,1.071772e-001
2.663256e+003,8.605634e-002
2.690255e+003,5.636552e-002
2.717254e+003,2.612044e-002
2.744253e+003,5.487256e-003
2.771252e+003,-6.701051e-003
2.798251e+003,-1.867994e-002
2.825250e+003,-2.878354e-002
2.852249e+003,-3.437709e-002
2.879248e+003,-5.414186e-002
2.906247e+003,-6.580704e-002
2.933246e+003,-7.391359e-002
2.960245e+003,-8.589092e-002
2.987244e+003,-9.985614e-002
3.014243e+003,-1.224620e-001
3.041242e+003,-1.431889e-001
3.068241e+003,-1.565942e-001
3.095240e+003,-1.661029e-001
3.122239e+003,-1.739413e-001
3.149238e+003,-1.794582e-001
3.176237e+003,-1.849588e-001
3.203236e+003,-1.895586e-001
3.230235e+003,-1.936820e-001
3.257234e+003,-1.975988e-001
3.284233e+003,-2.014192e-001
3.311232e+003,-2.042928e-001
3.338231e+003,-2.089776e-001
3.365230e+003,-2.107891e-001
3.392229e+003,-2.149229e-001
3.419228e+003,-2.157605e-001
3.446227e+003,-2.161966e-001
3.473226e+003,-2.150978e-001
3.500225e+003,-2.185168e-001
3.527224e+003,-2.143699e-001
3.554223e+003,-2.214405e-001
3.581222e+003,-2.249664e-001
3.608221e+003,-2.342610e-001
3.635220e+003,-2.384467e-001
3.662219e+003,-2.410441e-001
3.689218e+003,-2.429847e-001
3.716217e+003,-2.437507e-001
3.743216e+003,-2.479508e-001
3.770215e+003,-2.470237e-001
3.797214e+003,-2.476182e-001
3.824213e+003,-2.476638e-001
3.851211e+003,-2.545893e-001
3.878210e+003,-2.530610e-001
3.905209e+003,-2.495195e-001
3.932208e+003,-2.513448e-001
3.959208e+003,-2.540146e-001
3.986206e+003,-2.547050e-001
4.013205e+003,-2.566272e-001
4.040204e+003,-2.569644e-001
4.067203e+003,-2.571037e-001
4.094202e+003,-2.573557e-001
4.121201e+003,-2.585603e-001
4.148200e+003,-2.592285e-001
4.175199e+003,-2.593489e-001
4.202198e+003,-2.606300e-001
4.229197e+003,-2.608878e-001
4.256196e+003,-2.608728e-001
4.283195e+003,-2.606832e-001
4.310194e+003,-2.611526e-001
4.337193e+003,-2.622880e-001
4.364192e+003,-2.613659e-001
4.391191e+003,-2.616960e-001
4.418190e+003,-2.620041e-001
4.445189e+003,-2.616562e-001
4.472188e+003,-2.628134e-001
4.499187e+003,-2.626282e-001
4.526186e+003,-2.623996e-001
4.553185e+003,-2.616037e-001
4.580184e+003,-2.610428e-001
4.607183e+003,-2.612095e-001
4.634182e+003,-2.619131e-001
4.661181e+003,-2.628398e-001
4.688180e+003,-2.618243e-001
4.715179e+003,-2.641796e-001
4.742178e+003,-2.643040e-001
4.769177e+003,-2.630574e-001
4.796176e+003,-2.633702e-001
4.823175e+003,-2.646946e-001
4.850174e+003,-2.632173e-001
4.877173e+003,-2.627764e-001
4.904172e+003,-2.622803e-001
4.931171e+003,-2.627895e-001
4.958169e+003,-2.648980e-001
4.985168e+003,-2.627661e-001
5.012167e+003,-2.635856e-001
5.039167e+003,-2.645484e-001
5.066166e+003,-2.627903e-001
5.093165e+003,-2.632967e-001
5.120164e+003,-2.636092e-001
5.147163e+003,-2.636836e-001
5.174162e+003,-2.643377e-001
5.201161e+003,-2.632578e-001
5.228160e+003,-2.613294e-001
5.255158e+003,-2.629172e-001
5.282157e+003,-2.625050e-001
5.309156e+003,-2.635469e-001
5.336155e+003,-2.576468e-001
5.363154e+003,-2.591346e-001
5.390153e+003,-2.627253e-001
5.417152e+003,-2.572041e-001
5.444151e+003,-2.619270e-001
5.471150e+003,-2.625779e-001
5.498149e+003,-2.582984e-001
5.525148e+003,-2.610402e-001
5.552147e+003,-2.600744e-001
5.579146e+003,-2.578329e-001
5.606145e+003,-2.580669e-001
5.633144e+003,-2.570919e-001
5.660143e+003,-2.551262e-001
5.687142e+003,-2.571893e-001
5.714141e+003,-2.532357e-001
5.741140e+003,-2.523517e-001
5.768139e+003,-2.524616e-001
5.795138e+003,-2.502316e-001
5.822137e+003,-2.459297e-001
5.849136e+003,-2.449529e-001
5.876135e+003,-2.394230e-001
5.903134e+003,-2.399914e-001
5.930133e+003,-2.368138e-001
5.957132e+003,-2.333435e-001
5.984131e+003,-2.310030e-001
6.011130e+003,-2.226012e-001
6.038129e+003,-2.201263e-001
6.065128e+003,-2.170668e-001
6.092127e+003,-2.060005e-001
6.119126e+003,-2.032839e-001
6.146125e+003,-1.893190e-001
6.173124e+003,-1.793375e-001
6.200123e+003,-1.755266e-001
6.227122e+003,-1.700002e-001
6.254121e+003,-1.552925e-001
6.281120e+003,-1.439853e-001
6.308119e+003,-1.380547e-001
6.335118e+003,-1.221846e-001
6.362117e+003,-1.149720e-001
6.389116e+003,-9.428562e-002
6.416115e+003,-8.637797e-002
6.443113e+003,-6.496561e-002
6.470112e+003,-4.933439e-002
6.497111e+003,-3.155617e-002
6.524110e+003,-1.028984e-003
6.551109e+003,3.477553e-003
6.578108e+003,4.257279e-002
6.605107e+003,5.534868e-002
6.632106e+003,8.010124e-002
6.659105e+003,1.111277e-001
6.686104e+003,1.272651e-001
6.713104e+003,1.751038e-001
6.740102e+003,1.953406e-001
6.767101e+003,2.458715e-001
6.794100e+003,2.623168e-001
6.821099e+003,2.945060e-001
6.848098e+003,3.328081e-001
6.875097e+003,3.695123e-001
6.902096e+003,3.704789e-001
6.929095e+003,4.768295e-001
6.956094e+003,4.906260e-001
6.983093e+003,5.336173e-001
7.010092e+003,5.560399e-001
7.037091e+003,5.822941e-001
7.064090e+003,6.580474e-001
7.091089e+003,6.799007e-001
7.118088e+003,7.448711e-001
7.145087e+003,7.186908e-001
7.172086e+003,8.059276e-001
7.199085e+003,8.438291e-001
7.226084e+003,9.710199e-001
7.253083e+003,9.129648e-001
7.280082e+003,9.518475e-001
7.307081e+003,1.085256e+000
7.334080e+003,9.215667e-001
7.361079e+003,9.375051e-001
7.388078e+003,1.167274e+000
7.415077e+003,1.234128e+000
7.442076e+003,1.121884e+000
7.469075e+003,1.074959e+000
7.496074e+003,1.156168e+000
7.523073e+003,1.116166e+000
7.550072e+003,1.123215e+000
7.577071e+003,8.902531e-001
7.604070e+003,1.643041e+000
7.631068e+003,1.336234e+000
7.658067e+003,1.040572e+000
7.685066e+003,1.275495e+000
7.712065e+003,1.945539e+000
7.739064e+003,1.016358e+000
7.766063e+003,1.041044e+000
7.793063e+003,1.165765e+000
7.820062e+003,1.473758e+000
7.847061e+003,9.485698e-001
7.874060e+003,1.336504e+000
7.901059e+003,8.548515e-001
7.928057e+003,1.599418e+000
7.955056e+003,1.149532e+000
7.982055e+003,8.132614e-001
8.009054e+003,1.214222e+000
8.036053e+003,7.516792e-001
8.063052e+003,8.329107e-001
8.090051e+003,1.107066e+000
8.117050e+003,6.000000e+000
8.144049e+003,6.000000e+000
8.171048e+003,7.269394e-001
8.198047e+003,9.839007e-001
8.225046e+003,7.992842e-001
8.252045e+003,1.629979e+000
8.279044e+003,7.308868e-001
8.306043e+003,8.722309e-001
8.333042e+003,9.238837e-001
8.360041e+003,5.838786e-001
8.387040e+003,9.349878e-001
8.414039e+003,1.110635e+000
8.441038e+003,9.450372e-001
8.468037e+003,1.171029e+000
8.495036e+003,5.781678e-001
8.500821e+003,3.708366e-001