File: olivine/FTIR/SC1-2-800C-7hr-c08-copper-baseline-high.CSV
wavenumber (/cm),baseline value (/cm),baseline-subtracted absorbance (/cm),
3149.24,0.38622,-0.000930001
3151.17,0.383757,0.00408063
3153.09,0.381304,0.00378852
3155.02,0.378862,0.00237415
3156.95,0.376427,0.00342212
3158.88,0.374001,0.0014192
3160.81,0.371586,0.000957269
3162.74,0.36918,0.00441881
3164.67,0.366784,0.00313307
3166.59,0.364397,0.00136239
3168.52,0.362018,0.00263677
3170.45,0.359649,0.00286267
3172.38,0.35729,0.00435567
3174.31,0.354939,0.00551404
3176.24,0.352599,0.00488989
3178.17,0.350267,0.00700196
3180.09,0.347946,0.0097418
3182.02,0.345634,0.0068835
3183.95,0.34333,0.00559038
3185.88,0.341036,0.00613263
3187.81,0.338752,0.00678161
3189.74,0.336476,0.00807136
3191.66,0.334211,0.0100056
3193.59,0.331953,0.0132361
3195.52,0.329707,0.0120626
3197.45,0.32747,0.00971627
3199.38,0.325241,0.00903972
3201.31,0.323021,0.0103042
3203.24,0.320812,0.0134297
3205.16,0.318611,0.0174238
3207.09,0.31642,0.0195021
3209.02,0.314239,0.0182975
3210.95,0.312066,0.0182754
3212.88,0.309904,0.0225955
3214.81,0.30775,0.0255548
3216.74,0.305605,0.023717
3218.66,0.30347,0.0260445
3220.59,0.301344,0.0273397
3222.52,0.299228,0.0247299
3224.45,0.297122,0.0243991
3226.38,0.295024,0.0231363
3228.31,0.292936,0.0205787
3230.24,0.290857,0.0225444
3232.16,0.288787,0.0248363
3234.09,0.286727,0.0297363
3236.02,0.284676,0.035145
3237.95,0.282635,0.0325159
3239.88,0.280604,0.0285412
3241.81,0.27858,0.029356
3243.73,0.276568,0.0312304
3245.66,0.274563,0.0315307
3247.59,0.272568,0.0307922
3249.52,0.270583,0.0280236
3251.45,0.268607,0.0300067
3253.38,0.26664,0.0300472
3255.3,0.264684,0.0279289
3257.23,0.262735,0.0308704
3259.16,0.260797,0.0306251
3261.09,0.258867,0.0286794
3263.02,0.256947,0.0305007
3264.95,0.255037,0.0343803
3266.88,0.253136,0.0340127
3268.8,0.251244,0.0313755
3270.73,0.249362,0.0283844
3272.66,0.247488,0.0305208
3274.59,0.245624,0.0348544
3276.52,0.24377,0.0364036
3278.45,0.241925,0.0351651
3280.38,0.240089,0.0323279
3282.3,0.238264,0.0346314
3284.23,0.236446,0.0378508
3286.16,0.234639,0.0372771
3288.09,0.23284,0.0382803
3290.02,0.231051,0.03827
3291.95,0.229272,0.0398586
3293.88,0.227502,0.0436419
3295.8,0.22574,0.0406069
3297.73,0.223989,0.0369896
3299.66,0.222247,0.0378907
3301.59,0.220514,0.0404641
3303.52,0.21879,0.0436947
3305.45,0.217076,0.0418967
3307.38,0.215371,0.0386511
3309.3,0.213676,0.0428575
3311.23,0.21199,0.0477837
3313.16,0.210314,0.0465235
3315.09,0.208646,0.0421366
3317.02,0.206988,0.0423346
3318.95,0.205339,0.0444729
3320.88,0.203699,0.0449715
3322.8,0.20207,0.0446501
3324.73,0.20045,0.0424318
3326.66,0.198838,0.0418439
3328.59,0.197236,0.0431291
3330.52,0.195643,0.0483635
3332.45,0.194061,0.0493884
3334.37,0.192486,0.0477614
3336.3,0.190922,0.0496161
3338.23,0.189367,0.0467297
3340.16,0.187821,0.0453564
3342.09,0.186284,0.0487349
3344.02,0.184758,0.0495384
3345.95,0.183239,0.0505997
3347.87,0.181731,0.0498
3349.8,0.180232,0.0495351
3351.73,0.178743,0.0485237
3353.66,0.177262,0.0480445
3355.59,0.175791,0.0525809
3357.52,0.174329,0.0560267
3359.44,0.172877,0.0559846
3361.37,0.171434,0.0565157
3363.3,0.17,0.0593795
3365.23,0.168576,0.0583648
3367.16,0.167161,0.0548132
3369.09,0.165756,0.0546503
3371.01,0.16436,0.0539209
3372.94,0.162972,0.0528973
3374.87,0.161595,0.0516074
3376.8,0.160227,0.0508987
3378.73,0.158868,0.0546457
3380.66,0.157519,0.0575188
3382.59,0.156179,0.0569041
3384.51,0.154848,0.0546544
3386.44,0.153527,0.0575579
3388.37,0.152214,0.0603314
3390.3,0.150912,0.0585473
3392.23,0.149618,0.0564299
3394.16,0.148335,0.0564935
3396.09,0.14706,0.0576462
3398.01,0.145795,0.061045
3399.94,0.144538,0.0679345
3401.87,0.143292,0.0703756
3403.8,0.142055,0.0661537
3405.73,0.140827,0.0659358
3407.66,0.139608,0.0670905
3409.59,0.138399,0.0663955
3411.51,0.137199,0.0687616
3413.44,0.136009,0.0666201
3415.37,0.134828,0.0676519
3417.3,0.133656,0.069581
3419.23,0.132493,0.0693215
3421.16,0.131341,0.0696318
3423.09,0.130197,0.0722385
3425.01,0.129063,0.07398
3426.94,0.127937,0.0737412
3428.87,0.126822,0.0760504
3430.8,0.125715,0.0764232
3432.73,0.124619,0.0756534
3434.66,0.123531,0.0761757
3436.58,0.122453,0.0830578
3438.51,0.121383,0.0881809
3440.44,0.120324,0.0857311
3442.37,0.119274,0.0869201
3444.3,0.118233,0.0851764
3446.23,0.117201,0.0824095
3448.16,0.116179,0.0900128
3450.08,0.115166,0.0931921
3452.01,0.114163,0.0911401
3453.94,0.113169,0.0884434
3455.87,0.112184,0.0910503
3457.8,0.111209,0.0902717
3459.73,0.110243,0.0907604
3461.66,0.109286,0.0962731
3463.58,0.108339,0.0982274
3465.51,0.107401,0.0934596
3467.44,0.106472,0.0944866
3469.37,0.105553,0.0991451
3471.3,0.104643,0.100882
3473.23,0.103742,0.101422
3475.15,0.102851,0.10075
3477.08,0.101969,0.0979077
3479.01,0.101097,0.100136
3480.94,0.100233,0.107258
3482.87,0.0993796,0.109724
3484.8,0.0985349,0.104655
3486.72,0.0977,0.104569
3488.65,0.096874,0.106254
3490.58,0.0960578,0.10485
3492.51,0.0952505,0.102758
3494.44,0.094453,0.101238
3496.37,0.0936644,0.0995742
3498.3,0.0928856,0.101179
3500.22,0.0921157,0.0957687
3502.15,0.0913556,0.0909248
3504.08,0.0906044,0.0952998
3506.01,0.089863,0.0993263
3507.94,0.0891305,0.0969586
3509.87,0.0884078,0.101742
3511.8,0.087694,0.110152
3513.72,0.08699,0.11023
3515.65,0.086295,0.109489
3517.58,0.0856096,0.116375
3519.51,0.0849333,0.122537
3521.44,0.0842666,0.126304
3523.37,0.083609,0.132146
3525.3,0.0829611,0.132674
3527.22,0.0823221,0.126521
3529.15,0.0816929,0.124378
3531.08,0.0810727,0.12059
3533.01,0.0804621,0.113133
3534.94,0.0798606,0.105508
3536.87,0.0792688,0.104089
3538.8,0.078686,0.10303
3540.72,0.0781128,0.101978
3542.65,0.0775487,0.100199
3544.58,0.0769943,0.0975514
3546.51,0.0764489,0.0935425
3548.44,0.0759131,0.087979
3550.37,0.0753864,0.0831696
3552.29,0.0748694,0.0884335
3554.22,0.0743614,0.0987464
3556.15,0.073863,0.105426
3558.08,0.0733738,0.113292
3560.01,0.0728941,0.127653
3561.94,0.0724235,0.146622
3563.86,0.0719626,0.155092
3565.79,0.0715107,0.155921
3567.72,0.0710685,0.177644
3569.65,0.0706353,0.196088
3571.58,0.0702117,0.203782
3573.51,0.0697973,0.197417
3575.44,0.0693924,0.170648
3577.36,0.0689967,0.133959
3579.29,0.0686105,0.104429
3581.22,0.0682335,0.0870541
3583.15,0.067866,0.0787002
3585.08,0.0675077,0.0676055
3587.01,0.0671589,0.0643401
3588.94,0.0668193,0.0823604
3590.86,0.0664892,0.0858523
3592.79,0.0661683,0.08947
3594.72,0.0658569,0.109713
3596.65,0.0655547,0.13277
3598.58,0.065262,0.134056
3600.51,0.0649786,0.113372
3602.43,0.0647046,0.080675
3604.36,0.0644398,0.0572928
3606.29,0.0641845,0.0460531
3608.22,0.0639384,0.0443735
3610.15,0.0637018,0.0381606
3612.08,0.0634744,0.0297359
3614.01,0.0632565,0.0364645
3615.93,0.0630479,0.0316074
3617.86,0.0628487,0.0275516
3619.79,0.0626587,0.0351776
3621.72,0.0624782,0.0358084
3623.65,0.062307,0.0301175
3625.58,0.0621452,0.0268263
3627.51,0.0619926,0.0171664
3629.43,0.0618495,0.0326178
3631.36,0.0617157,0.0332434
3633.29,0.0615913,0.0221442
3635.22,0.0614762,0.0256809
3637.15,0.0613704,0.0247157
3639.08,0.061274,0.0218686
3641.01,0.061187,0.0191258
3642.93,0.0611093,0.018124
3644.86,0.061041,0.010783
3646.79,0.060982,0.000408398
3648.72,0.0609324,0.00602256
3650.65,0.0608921,0.0293632
3652.58,0.0608611,0.0243395
3654.51,0.0608395,0.00331036
3656.43,0.0608273,0.0117022
3658.36,0.0608244,0.0170417
3660.29,0.0608309,0.0114732
3662.22,0.0608467,0.0131829
3664.15,0.0608719,0.010284
3666.08,0.0609064,-0.000233235
3668,0.0609503,-0.00731036
3669.93,0.0610035,0.00936237
3671.86,0.0610661,0.0209318
3673.79,0.0611381,0.00218045
3675.72,0.0612193,0.0177532
3677.65,0.06131,0.0166315
3679.57,0.0614099,0.00719868
3681.5,0.0615193,0.00720203
3683.43,0.0616379,0.00406356
3685.36,0.061766,6.35611e-05
3687.29,0.0619034,-0.0102057
3689.22,0.0620501,0.00217153
3691.15,0.0622062,0.0120205
3693.07,0.0623717,0.00850874
3695,0.0625464,0.000294471
3696.93,0.0627306,0.000961387