File: olivine/FTIR/SC1-2-800C-7hr-c06-copper.CSV
4.493401e+002,6.000000e+000
4.763391e+002,6.202410e-001
5.033381e+002,4.316008e-001
5.303371e+002,5.951678e-001
5.573361e+002,1.820189e+000
5.843350e+002,1.734131e+000
6.113340e+002,1.751281e+000
6.383330e+002,1.916847e+000
6.653320e+002,1.935640e+000
6.923309e+002,1.912806e+000
7.193300e+002,2.024100e+000
7.463289e+002,1.995998e+000
7.733279e+002,2.021501e+000
8.003269e+002,1.941628e+000
8.273259e+002,2.089758e+000
8.543248e+002,2.027602e+000
8.813238e+002,1.996096e+000
9.083228e+002,2.005898e+000
9.353218e+002,2.085062e+000
9.623207e+002,2.058151e+000
9.893197e+002,1.996547e+000
1.016319e+003,2.022312e+000
1.043318e+003,2.091100e+000
1.070317e+003,2.172154e+000
1.097316e+003,2.118014e+000
1.124315e+003,2.113276e+000
1.151314e+003,2.195043e+000
1.178313e+003,2.229749e+000
1.205312e+003,2.110784e+000
1.232311e+003,2.134745e+000
1.259310e+003,2.086754e+000
1.286308e+003,2.148747e+000
1.313307e+003,2.149264e+000
1.340307e+003,2.145988e+000
1.367305e+003,2.124667e+000
1.394304e+003,2.088074e+000
1.421303e+003,2.179975e+000
1.448302e+003,2.103591e+000
1.475301e+003,2.172124e+000
1.502300e+003,2.051452e+000
1.529299e+003,2.017162e+000
1.556298e+003,1.978537e+000
1.583297e+003,2.118585e+000
1.610296e+003,2.168474e+000
1.637295e+003,2.024669e+000
1.664294e+003,2.245580e+000
1.691293e+003,2.193588e+000
1.718292e+003,2.053881e+000
1.745291e+003,2.164940e+000
1.772290e+003,2.129926e+000
1.799289e+003,2.156057e+000
1.826288e+003,2.164953e+000
1.853287e+003,2.194885e+000
1.880286e+003,2.176524e+000
1.907285e+003,2.260870e+000
1.934284e+003,2.291122e+000
1.961283e+003,2.273862e+000
1.988282e+003,2.344946e+000
2.015281e+003,2.158743e+000
2.042280e+003,2.292890e+000
2.069279e+003,1.679494e+000
2.096278e+003,1.325086e+000
2.123277e+003,1.154508e+000
2.150276e+003,1.050973e+000
2.177275e+003,9.666939e-001
2.204274e+003,8.891909e-001
2.231273e+003,8.154549e-001
2.258272e+003,7.538213e-001
2.285271e+003,6.951899e-001
2.312270e+003,6.500276e-001
2.339269e+003,6.058650e-001
2.366268e+003,5.719765e-001
2.393267e+003,5.114530e-001
2.420266e+003,4.766957e-001
2.447265e+003,4.452030e-001
2.474264e+003,4.248467e-001
2.501262e+003,4.053312e-001
2.528261e+003,3.616578e-001
2.555260e+003,3.363711e-001
2.582260e+003,3.130717e-001
2.609259e+003,2.884900e-001
2.636258e+003,2.707585e-001
2.663256e+003,2.482899e-001
2.690255e+003,2.208740e-001
2.717254e+003,1.908850e-001
2.744253e+003,1.702185e-001
2.771252e+003,1.566799e-001
2.798251e+003,1.471874e-001
2.825250e+003,1.361429e-001
2.852249e+003,1.292853e-001
2.879248e+003,1.108300e-001
2.906247e+003,9.940370e-002
2.933246e+003,9.016652e-002
2.960245e+003,8.014961e-002
2.987244e+003,6.628252e-002
3.014243e+003,4.447188e-002
3.041242e+003,2.260371e-002
3.068241e+003,8.178292e-003
3.095240e+003,1.110795e-004
3.122239e+003,-8.055652e-003
3.149238e+003,-1.339844e-002
3.176237e+003,-2.025979e-002
3.203236e+003,-2.403062e-002
3.230235e+003,-2.822673e-002
3.257234e+003,-3.222071e-002
3.284233e+003,-3.564351e-002
3.311232e+003,-3.847300e-002
3.338231e+003,-4.298931e-002
3.365230e+003,-4.423258e-002
3.392229e+003,-4.857714e-002
3.419228e+003,-4.920888e-002
3.446227e+003,-4.975760e-002
3.473226e+003,-5.109485e-002
3.500225e+003,-5.293685e-002
3.527224e+003,-4.860891e-002
3.554223e+003,-5.306824e-002
3.581222e+003,-5.748175e-002
3.608221e+003,-6.792944e-002
3.635220e+003,-7.007909e-002
3.662219e+003,-7.382464e-002
3.689218e+003,-7.409541e-002
3.716217e+003,-7.680918e-002
3.743216e+003,-8.077218e-002
3.770215e+003,-7.974113e-002
3.797214e+003,-7.982217e-002
3.824213e+003,-7.972328e-002
3.851211e+003,-8.571307e-002
3.878210e+003,-8.442482e-002
3.905209e+003,-8.192264e-002
3.932208e+003,-8.285265e-002
3.959208e+003,-8.589448e-002
3.986206e+003,-8.653071e-002
4.013205e+003,-8.845136e-002
4.040204e+003,-8.978228e-002
4.067203e+003,-8.905827e-002
4.094202e+003,-9.001371e-002
4.121201e+003,-9.172443e-002
4.148200e+003,-9.101930e-002
4.175199e+003,-9.070315e-002
4.202198e+003,-9.139448e-002
4.229197e+003,-9.249332e-002
4.256196e+003,-9.226618e-002
4.283195e+003,-9.287744e-002
4.310194e+003,-9.242133e-002
4.337193e+003,-9.270561e-002
4.364192e+003,-9.272309e-002
4.391191e+003,-9.349620e-002
4.418190e+003,-9.448209e-002
4.445189e+003,-9.340726e-002
4.472188e+003,-9.371915e-002
4.499187e+003,-9.477774e-002
4.526186e+003,-9.400403e-002
4.553185e+003,-9.339806e-002
4.580184e+003,-9.410603e-002
4.607183e+003,-9.359288e-002
4.634182e+003,-9.297604e-002
4.661181e+003,-9.569886e-002
4.688180e+003,-9.407962e-002
4.715179e+003,-9.626392e-002
4.742178e+003,-9.546737e-002
4.769177e+003,-9.510406e-002
4.796176e+003,-9.548647e-002
4.823175e+003,-9.747645e-002
4.850174e+003,-9.571970e-002
4.877173e+003,-9.515599e-002
4.904172e+003,-9.535103e-002
4.931171e+003,-9.564008e-002
4.958169e+003,-9.876466e-002
4.985168e+003,-9.736342e-002
5.012167e+003,-9.405860e-002
5.039167e+003,-9.693798e-002
5.066166e+003,-9.606191e-002
5.093165e+003,-9.706291e-002
5.120164e+003,-9.614466e-002
5.147163e+003,-9.660114e-002
5.174162e+003,-9.529687e-002
5.201161e+003,-9.697047e-002
5.228160e+003,-9.320696e-002
5.255158e+003,-9.514681e-002
5.282157e+003,-9.554894e-002
5.309156e+003,-9.720989e-002
5.336155e+003,-9.354095e-002
5.363154e+003,-9.329672e-002
5.390153e+003,-9.487999e-002
5.417152e+003,-9.311437e-002
5.444151e+003,-9.316985e-002
5.471150e+003,-9.210775e-002
5.498149e+003,-9.194002e-002
5.525148e+003,-9.611835e-002
5.552147e+003,-9.007371e-002
5.579146e+003,-9.101272e-002
5.606145e+003,-9.145778e-002
5.633144e+003,-9.014501e-002
5.660143e+003,-8.764421e-002
5.687142e+003,-8.999720e-002
5.714141e+003,-8.384382e-002
5.741140e+003,-8.121351e-002
5.768139e+003,-8.335731e-002
5.795138e+003,-8.289393e-002
5.822137e+003,-7.875601e-002
5.849136e+003,-7.608234e-002
5.876135e+003,-7.049473e-002
5.903134e+003,-7.059704e-002
5.930133e+003,-6.992745e-002
5.957132e+003,-6.229154e-002
5.984131e+003,-5.737490e-002
6.011130e+003,-5.217291e-002
6.038129e+003,-5.237905e-002
6.065128e+003,-4.974309e-002
6.092127e+003,-3.528368e-002
6.119126e+003,-2.996302e-002
6.146125e+003,-2.244327e-002
6.173124e+003,-1.178012e-002
6.200123e+003,-5.402624e-003
6.227122e+003,-7.306533e-004
6.254121e+003,1.081932e-002
6.281120e+003,2.829533e-002
6.308119e+003,3.463297e-002
6.335118e+003,4.953213e-002
6.362117e+003,5.490519e-002
6.389116e+003,7.785100e-002
6.416115e+003,8.205909e-002
6.443113e+003,1.079665e-001
6.470112e+003,1.250946e-001
6.497111e+003,1.397685e-001
6.524110e+003,1.611647e-001
6.551109e+003,1.857751e-001
6.578108e+003,2.003707e-001
6.605107e+003,2.240887e-001
6.632106e+003,2.489946e-001
6.659105e+003,2.712349e-001
6.686104e+003,2.966221e-001
6.713104e+003,3.420663e-001
6.740102e+003,3.366728e-001
6.767101e+003,3.928976e-001
6.794100e+003,4.196742e-001
6.821099e+003,4.643077e-001
6.848098e+003,4.970350e-001
6.875097e+003,5.298566e-001
6.902096e+003,5.499333e-001
6.929095e+003,5.771844e-001
6.956094e+003,6.308774e-001
6.983093e+003,6.557984e-001
7.010092e+003,7.338650e-001
7.037091e+003,8.171183e-001
7.064090e+003,7.914333e-001
7.091089e+003,8.044008e-001
7.118088e+003,8.912097e-001
7.145087e+003,9.032313e-001
7.172086e+003,9.633323e-001
7.199085e+003,1.011692e+000
7.226084e+003,1.066665e+000
7.253083e+003,9.987615e-001
7.280082e+003,1.043200e+000
7.307081e+003,1.171315e+000
7.334080e+003,1.119514e+000
7.361079e+003,1.024855e+000
7.388078e+003,1.182744e+000
7.415077e+003,1.501339e+000
7.442076e+003,1.190876e+000
7.469075e+003,1.273836e+000
7.496074e+003,1.287380e+000
7.523073e+003,1.560264e+000
7.550072e+003,2.166817e+000
7.577071e+003,1.219085e+000
7.604070e+003,1.306756e+000
7.631068e+003,1.488562e+000
7.658067e+003,1.215408e+000
7.685066e+003,1.339743e+000
7.712065e+003,2.041201e+000
7.739064e+003,6.000000e+000
7.766063e+003,1.040035e+000
7.793063e+003,1.195566e+000
7.820062e+003,1.012609e+000
7.847061e+003,1.459135e+000
7.874060e+003,1.241878e+000
7.901059e+003,2.678803e+000
7.928057e+003,8.099152e-001
7.955056e+003,6.000000e+000
7.982055e+003,1.551226e+000
8.009054e+003,1.070871e+000
8.036053e+003,1.337163e+000
8.063052e+003,6.213569e-001
8.090051e+003,1.602807e+000
8.117050e+003,1.331304e+000
8.144049e+003,1.105333e+000
8.171048e+003,6.406978e-001
8.198047e+003,7.576017e-001
8.225046e+003,9.104263e-001
8.252045e+003,1.036276e+000
8.279044e+003,6.375737e-001
8.306043e+003,7.642164e-001
8.333042e+003,1.180080e+000
8.360041e+003,1.073541e+000
8.387040e+003,3.951517e-001
8.414039e+003,8.177335e-001
8.441038e+003,9.701324e-001
8.468037e+003,3.982198e-001
8.495036e+003,6.000000e+000
8.500821e+003,8.511117e-001