File: olivine/FTIR/SC1-2-800C-7hr-c02-copper-SiO-baseline.CSV
wavenumber (/cm),baseline value (/cm),baseline-subtracted absorbance (/cm),
1625.72,10.6466,8.88178e-15
1627.65,10.6281,-0.0266827
1629.58,10.6096,0.246519
1631.51,10.5911,0.469336
1633.44,10.5726,0.253252
1635.37,10.5541,-0.552077
1637.3,10.5357,-0.451402
1639.22,10.5172,0.0711624
1641.15,10.4987,0.299656
1643.08,10.4802,0.111379
1645.01,10.4617,-0.165753
1646.94,10.4433,-0.316711
1648.87,10.4248,-0.00928293
1650.8,10.4063,0.071762
1652.72,10.3878,0.222705
1654.65,10.3693,1.01365
1656.58,10.3509,0.733467
1658.51,10.3324,0.662106
1660.44,10.3139,0.742899
1662.37,10.2954,0.7185
1664.29,10.2769,0.622077
1666.22,10.2585,0.658045
1668.15,10.24,0.36525
1670.08,10.2215,0.359749
1672.01,10.203,0.494868
1673.94,10.1845,0.405737
1675.87,10.1661,0.319821
1677.79,10.1476,0.488817
1679.72,10.1291,0.331952
1681.65,10.1106,0.166686
1683.58,10.0921,0.360569
1685.51,10.0736,0.83051
1687.44,10.0552,0.837584
1689.37,10.0367,0.590564
1691.29,10.0182,0.484613
1693.22,9.99972,0.496493
1695.15,9.98125,0.343833
1697.08,9.96276,0.451003
1699.01,9.94429,0.69949
1700.94,9.9258,1.20791
1702.86,9.90733,1.25592
1704.79,9.88884,1.29747
1706.72,9.87036,1.28694
1708.65,9.85188,1.39472
1710.58,9.8334,1.37166
1712.51,9.81492,1.01289
1714.43,9.79644,0.418887
1716.36,9.77796,0.347566
1718.29,9.75948,1.06484
1720.22,9.74099,1.42301
1722.15,9.72252,1.24715
1724.08,9.70403,1.11666
1726.01,9.68556,1.33921
1727.93,9.66707,1.27481
1729.86,9.64859,0.977018
1731.79,9.63011,0.882651
1733.72,9.61163,1.08277
1735.65,9.59315,1.67933
1737.58,9.57467,1.63682
1739.51,9.55619,1.49103
1741.43,9.53771,1.38369
1743.36,9.51922,1.52627
1745.29,9.50075,1.60435
1747.22,9.48226,1.61595
1749.15,9.46379,0.991427
1751.08,9.4453,0.987159
1753.01,9.42683,1.43015
1754.93,9.40834,1.66438
1756.86,9.38986,1.74272
1758.79,9.37138,1.69988
1760.72,9.3529,1.61497
1762.65,9.33442,2.0121
1764.58,9.31594,2.04191
1766.51,9.29746,1.75859
1768.43,9.27898,1.89498
1770.36,9.26049,1.82081
1772.29,9.24202,1.54228
1774.22,9.22353,1.93962
1776.15,9.20506,1.67802
1778.08,9.18657,1.70446
1780,9.16809,1.9166
1781.93,9.14961,2.11156
1783.86,9.13113,2.03264
1785.79,9.11265,1.69006
1787.72,9.09417,1.68785
1789.65,9.07569,2.12106
1791.58,9.05721,2.02753
1793.5,9.03872,1.47447
1795.43,9.02025,1.38308
1797.36,9.00176,1.63233
1799.29,8.98329,1.7731
1801.22,8.9648,1.92594
1803.15,8.94633,1.99694
1805.08,8.92784,1.9948
1807,8.90936,2.01339
1808.93,8.89088,2.03404
1810.86,8.8724,2.11566
1812.79,8.85392,2.33583
1814.72,8.83544,2.32863
1816.65,8.81696,2.19473
1818.57,8.79848,2.21821
1820.5,8.77999,2.34332
1822.43,8.76152,2.18
1824.36,8.74303,2.15744
1826.29,8.72456,2.26025
1828.22,8.70607,2.15032
1830.14,8.68759,2.11867
1832.07,8.66911,2.716
1834,8.65063,2.96878
1835.93,8.63215,2.51006
1837.86,8.61367,2.50621
1839.79,8.59519,2.7274
1841.72,8.57671,2.76236
1843.64,8.55822,2.68928
1845.57,8.53975,2.69869
1847.5,8.52126,2.62952
1849.43,8.50279,2.79981
1851.36,8.4843,2.95718
1853.29,8.46583,3.05466
1855.22,8.44734,2.74941
1857.14,8.42886,2.54046
1859.07,8.41038,2.8623
1861,8.3919,3.05553
1862.93,8.37342,2.8539
1864.86,8.35494,3.11459
1866.79,8.33646,2.73258
1868.71,8.31798,2.15647
1870.64,8.29949,2.43681
1872.57,8.28102,2.64997
1874.5,8.26254,2.7294
1876.43,8.24406,2.73692
1878.36,8.22557,2.93958
1880.29,8.20709,3.1152
1882.21,8.18861,3.25873
1884.14,8.17013,3.3177
1886.07,8.15165,3.30652
1888,8.13317,3.16425
1889.93,8.11469,2.67345
1891.86,8.09621,2.63524
1893.79,8.07772,2.88675
1895.71,8.05925,3.01899
1897.64,8.04076,3.10575
1899.57,8.02229,3.17487
1901.5,8.0038,3.03835
1903.43,7.98532,3.1311
1905.36,7.96684,3.34792
1907.29,7.94836,3.26923
1909.21,7.92988,3.16308
1911.14,7.9114,3.34143
1913.07,7.89292,3.42131
1915,7.87444,3.26349
1916.93,7.85596,3.34237
1918.86,7.83748,3.57375
1920.79,7.81899,3.75228
1922.71,7.80052,3.38698
1924.64,7.78204,3.34371
1926.57,7.76356,3.30917
1928.5,7.74507,3.18641
1930.43,7.72659,3.57134
1932.36,7.70812,3.69599
1934.28,7.68963,3.33226
1936.21,7.67115,3.51041
1938.14,7.65267,3.92945
1940.07,7.63419,3.74444
1942,7.61571,3.72722
1943.93,7.59722,3.68517
1945.86,7.57875,3.71601
1947.78,7.56027,4.0217
1949.71,7.54179,4.04955
1951.64,7.5233,4.00015
1953.57,7.50482,3.80106
1955.5,7.48635,3.51802
1957.43,7.46786,3.73847
1959.35,7.44939,3.63698
1961.28,7.4309,3.61107
1963.21,7.41243,4.05604
1965.14,7.39394,3.9503
1967.07,7.37546,3.82835
1969,7.35698,4.05279
1970.92,7.3385,3.95691
1972.85,7.32002,3.65797
1974.78,7.30154,3.94581
1976.71,7.28306,4.21847
1978.64,7.26458,4.13176
1980.57,7.24609,3.89192
1982.5,7.22762,3.68546
1984.42,7.20913,3.66732
1986.35,7.19065,3.7089
1988.28,7.17217,3.90548
1990.21,7.15369,4.09879
1992.14,7.13521,4.05947
1994.07,7.11672,4.09352
1996,7.09825,4.19089
1997.92,7.07977,3.98231
1999.85,7.06129,3.83473
2001.78,7.04281,4.09806
2003.71,7.02432,4.18666
2005.64,7.00585,4.14758
2007.57,6.98736,4.23895
2009.49,6.96889,4.09881
2011.42,6.9504,3.79492
2013.35,6.93193,3.70831
2015.28,6.91344,3.83538
2017.21,6.89496,4.09382
2019.14,6.87648,4.13365
2021.07,6.858,4.08833
2022.99,6.83952,4.25051
2024.92,6.82104,4.10607
2026.85,6.80256,4.25007
2028.78,6.78408,4.52099
2030.71,6.76559,4.55968
2032.64,6.74712,4.48168
2034.57,6.72863,4.35039
2036.49,6.71016,4.47429
2038.42,6.69167,4.65726
2040.35,6.67319,4.45083
2042.28,6.65471,4.14967
2044.21,6.63623,4.16763
2046.14,6.61775,4.15643
2048.07,6.59927,4.35395
2049.99,6.58079,4.72115
2051.92,6.56231,4.36087
2053.85,6.54382,4.1
2055.78,6.52535,3.87791
2057.71,6.50686,3.69399
2059.64,6.48839,3.73967
2061.57,6.4699,3.41595
2063.49,6.45143,3.1133
2065.42,6.43294,2.85815
2067.35,6.41446,2.58971
2069.28,6.39598,2.42654
2071.21,6.3775,2.20608
2073.14,6.35902,1.97402
2075.06,6.34054,1.84242
2076.99,6.32205,1.71398
2078.92,6.30358,1.56987
2080.85,6.28509,1.50075
2082.78,6.26662,1.39983
2084.71,6.24813,1.24067
2086.64,6.22966,1.11414
2088.56,6.21117,1.03406
2090.49,6.19269,0.973558
2092.42,6.17421,0.901763
2094.35,6.15573,0.840076
2096.28,6.13725,0.745947
2098.21,6.11877,0.688521
2100.14,6.10029,0.652594
2102.06,6.08181,0.608566
2103.99,6.06332,0.604834
2105.92,6.04485,0.58686
2107.85,6.02636,0.536807
2109.78,6.00789,0.464926
2111.71,5.9894,0.41734
2113.63,5.97092,0.376112
2115.56,5.95244,0.360574
2117.49,5.93396,0.321691
2119.42,5.91548,0.300527
2121.35,5.897,0.310735
2123.28,5.87852,0.274661
2125.2,5.86004,0.243911
2127.13,5.84155,0.246461
2129.06,5.82308,0.219308
2130.99,5.80459,0.203623
2132.92,5.78612,0.18712
2134.85,5.76763,0.141773
2136.78,5.74916,0.110744
2138.7,5.73067,0.0835761
2140.63,5.71219,0.060649
2142.56,5.69371,0.0674142
2144.49,5.67523,0.0746196
2146.42,5.65675,0.0479571
2148.35,5.63827,0.0139363