File: olivine/FTIR/SC1-2-800C-7hr-c06-copper-baseline.CSV
baseline wavenumber (cm-1),baseline absorbance (cm-1),baseline-subtracted absorbance (cm-1)
3199.379,0.325246,1.35447e-14
3201.308,0.32333,0.00201583
3203.236,0.321423,0.00516433
3205.165,0.319522,0.00738664
3207.093,0.317629,0.0101996
3209.021,0.315742,0.0119154
3210.95,0.313862,0.0131354
3212.878,0.31199,0.0152713
3214.807,0.310124,0.0171905
3216.736,0.308265,0.015241
3218.664,0.306414,0.0144675
3220.593,0.304569,0.0173603
3222.521,0.302732,0.0162265
3224.449,0.300902,0.0146078
3226.378,0.299079,0.0111015
3228.306,0.297263,0.0069159
3230.235,0.295453,0.00992701
3232.164,0.29365,0.0146409
3234.092,0.291855,0.0200689
3236.021,0.290067,0.0223257
3237.949,0.288286,0.0216132
3239.877,0.286512,0.020745
3241.806,0.284745,0.016702
3243.734,0.282985,0.0152413
3245.663,0.281232,0.0174138
3247.592,0.279485,0.0161981
3249.52,0.277747,0.015582
3251.448,0.276016,0.0170562
3253.377,0.27429,0.0154485
3255.305,0.272573,0.0123761
3257.234,0.270862,0.0143325
3259.162,0.269158,0.0149034
3261.091,0.267461,0.0116422
3263.02,0.265771,0.0116018
3264.948,0.264089,0.0183218
3266.876,0.262413,0.0224551
3268.805,0.260744,0.0176007
3270.733,0.259083,0.0132321
3272.662,0.257428,0.0160093
3274.591,0.25578,0.018603
3276.519,0.25414,0.020925
3278.448,0.252507,0.0207523
3280.376,0.250881,0.018844
3282.304,0.249262,0.0183905
3284.233,0.247649,0.0202461
3286.161,0.246044,0.0199567
3288.09,0.244445,0.0193675
3290.019,0.242854,0.0196309
3291.947,0.24127,0.017863
3293.875,0.239693,0.0208192
3295.804,0.238123,0.0245372
3297.732,0.23656,0.0224927
3299.661,0.235004,0.0218863
3301.589,0.233455,0.0250131
3303.518,0.231913,0.0296161
3305.447,0.230377,0.0268081
3307.375,0.22885,0.0235726
3309.303,0.227329,0.0273115
3311.232,0.225815,0.0277795
3313.16,0.224309,0.0244584
3315.089,0.222808,0.0208348
3317.017,0.221316,0.0182182
3318.946,0.21983,0.0183103
3320.875,0.218351,0.0241816
3322.803,0.21688,0.0260384
3324.731,0.215416,0.0254497
3326.66,0.213958,0.0242228
3328.588,0.212507,0.0227862
3330.517,0.211064,0.029786
3332.445,0.209627,0.0278839
3334.374,0.208198,0.025155
3336.302,0.206776,0.0288831
3338.231,0.20536,0.0254088
3340.159,0.203952,0.0230514
3342.088,0.20255,0.0284005
3344.016,0.201156,0.0346869
3345.945,0.199769,0.0364799
3347.873,0.198389,0.0345828
3349.802,0.197016,0.0332446
3351.73,0.19565,0.0307695
3353.659,0.19429,0.0314595
3355.587,0.192939,0.0348407
3357.516,0.191593,0.0366235
3359.444,0.190256,0.0374221
3361.373,0.188924,0.037256
3363.302,0.1876,0.0397011
3365.23,0.186284,0.0382016
3367.158,0.184974,0.0341447
3369.087,0.183671,0.0329359
3371.015,0.182375,0.0342125
3372.944,0.181086,0.0352183
3374.872,0.179805,0.0372452
3376.801,0.17853,0.0376821
3378.729,0.177263,0.040141
3380.658,0.176002,0.038728
3382.586,0.174749,0.0325024
3384.515,0.173502,0.0292748
3386.443,0.172263,0.0365292
3388.372,0.17103,0.0409438
3390.3,0.169805,0.0373813
3392.229,0.168586,0.0339414
3394.157,0.167375,0.0365862
3396.086,0.16617,0.0397785
3398.014,0.164973,0.0418113
3399.943,0.163783,0.0468215
3401.871,0.1626,0.0507636
3403.8,0.161423,0.0485997
3405.728,0.160254,0.0480823
3407.657,0.159092,0.0464485
3409.585,0.157937,0.044069
3411.514,0.156789,0.0472752
3413.442,0.155648,0.0432187
3415.371,0.154514,0.0425722
3417.299,0.153387,0.0464711
3419.228,0.152267,0.0470674
3421.156,0.151155,0.0508227
3423.085,0.150048,0.0525157
3425.013,0.14895,0.0504017
3426.942,0.147858,0.0474975
3428.87,0.146773,0.0529042
3430.799,0.145695,0.0558686
3432.727,0.144625,0.0533722
3434.656,0.143561,0.0510133
3436.584,0.142505,0.0532104
3438.513,0.141455,0.0584381
3440.441,0.140413,0.0590388
3442.37,0.139377,0.0658908
3444.298,0.138349,0.064688
3446.227,0.137327,0.0592343
3448.155,0.136313,0.0660723
3450.084,0.135305,0.0671057
3452.012,0.134305,0.0640094
3453.941,0.133312,0.0611248
3455.869,0.132326,0.0642293
3457.798,0.131346,0.0665203
3459.726,0.130374,0.0641405
3461.655,0.129409,0.0660979
3463.583,0.128451,0.0682754
3465.512,0.1275,0.065214
3467.44,0.126556,0.0681314
3469.369,0.125619,0.0719178
3471.297,0.124689,0.0705596
3473.226,0.123766,0.066037
3475.154,0.12285,0.068241
3477.083,0.121941,0.0725638
3479.011,0.121039,0.0747717
3480.94,0.120144,0.0787113
3482.868,0.119257,0.0825817
3484.797,0.118376,0.0816811
3486.725,0.117502,0.0845618
3488.654,0.116635,0.0882926
3490.582,0.115776,0.0873579
3492.511,0.114923,0.0774658
3494.439,0.114078,0.0734852
3496.368,0.113239,0.0726985
3498.296,0.112408,0.0763601
3500.225,0.111583,0.06891
3502.153,0.110766,0.0606667
3504.082,0.109955,0.0656667
3506.01,0.109152,0.0739568
3507.939,0.108356,0.0765299
3509.867,0.107566,0.0774534
3511.796,0.106784,0.0838872
3513.724,0.106009,0.0880789
3515.653,0.105241,0.0890391
3517.581,0.10448,0.0954811
3519.51,0.103725,0.102361
3521.438,0.102978,0.107356
3523.367,0.102238,0.114047
3525.295,0.101505,0.109584
3527.224,0.100779,0.101588
3529.152,0.10006,0.10121
3531.081,0.0993484,0.0975403
3533.009,0.0986437,0.0914253
3534.938,0.0979457,0.0908529
3536.866,0.0972551,0.0932604
3538.795,0.0965711,0.0901914
3540.723,0.0958946,0.0847843
3542.652,0.0952247,0.0793491
3544.58,0.0945622,0.0797096
3546.509,0.0939064,0.0746538
3548.437,0.0932579,0.067514
3550.366,0.0926162,0.0661891
3552.294,0.0919818,0.0780213
3554.223,0.0913542,0.0884748
3556.151,0.0907339,0.0930923
3558.08,0.0901203,0.100903
3560.008,0.0895141,0.11693
3561.937,0.0889146,0.130781
3563.865,0.0883224,0.136575
3565.794,0.0877369,0.140512
3567.722,0.0871588,0.165114
3569.651,0.0865875,0.177437
3571.579,0.0860234,0.18365
3573.508,0.0854661,0.179662
3575.436,0.0849162,0.154156
3577.365,0.0843729,0.119152
3579.293,0.083837,0.0898499
3581.222,0.0833079,0.0742149
3583.15,0.082786,0.0649606
3585.079,0.082271,0.0496761
3587.007,0.0817632,0.047921
3588.936,0.0812622,0.064941
3590.864,0.0807685,0.06571
3592.793,0.0802815,0.069497
3594.721,0.0798019,0.0866396
3596.65,0.079329,0.108329
3598.578,0.0788634,0.114796
3600.507,0.0784047,0.101355
3602.435,0.0779531,0.0704086
3604.364,0.0775084,0.043941
3606.292,0.077071,0.0295719
3608.221,0.0766403,0.028079
3610.149,0.0762169,0.0269384
3612.078,0.0758004,0.0178324
3614.006,0.0753911,0.0236846
3615.935,0.0749886,0.0199891
3617.863,0.0745933,0.0184354
3619.792,0.0742049,0.0253978
3621.72,0.0738237,0.0263935
3623.649,0.0734493,0.0183171
3625.577,0.0730822,0.0100687
3627.506,0.0727219,-0.00407162
3629.434,0.0723689,0.0179964
3631.363,0.0720227,0.0244423
3633.291,0.0716837,0.0182688
3635.22,0.0713515,0.0225033
3637.148,0.0710266,0.0200581
3639.077,0.0707085,0.017462
3641.005,0.0703977,0.0114967
3642.934,0.0700937,0.0096996
3644.862,0.0697969,0.00248523
3646.791,0.069507,-0.00760371
3648.719,0.0692242,-0.000104916
3650.648,0.0689484,0.0273153
3652.576,0.0686797,0.0228179
3654.505,0.068418,-0.00283654
3656.433,0.0681634,0.00243762
3658.362,0.0679157,0.0101634
3660.29,0.0676751,0.00594966
3662.219,0.0674415,0.00748305
3664.147,0.067215,0.00630726
3666.076,0.0669955,-0.000874325
3668.004,0.0667831,-0.00576209
3669.933,0.0665776,0.0135171
3671.861,0.0663792,0.0185289
3673.79,0.0661878,-0.0101538
3675.718,0.0660036,0.00808529
3677.647,0.0658262,0.0180704
3679.575,0.065656,0.00813894
3681.504,0.0654927,0.00648334
3683.432,0.0653366,0.00295466
3685.361,0.0651874,-0.000466803
3687.289,0.0650453,-0.00508769
3689.218,0.0649102,0.00864583
3691.146,0.0647822,0.010107
3693.075,0.0646612,0.00693639
3695.003,0.0645472,-0.000989995
3696.932,0.0644402,0.00240223
3698.86,0.0643404,0.00250211