File: olivine/FTIR/SC1-2-800C-7hr-c00-copper-baseline-low.CSV
wavenumber (/cm),baseline value (/cm),baseline-subtracted absorbance (/cm),
3450.08,0.151848,-0.00159845
3452.01,0.151145,-0.00353175
3453.94,0.150441,0.0014028
3455.87,0.149738,0.00344302
3457.8,0.149034,0.00314407
3459.73,0.14833,-0.00167864
3461.66,0.147627,-0.00566707
3463.58,0.146923,0.00169914
3465.51,0.146219,0.000676953
3467.44,0.145516,0.000753158
3469.37,0.144812,0.00155701
3471.3,0.144109,0.00140224
3473.23,0.143405,0.00742039
3475.15,0.142702,0.00423014
3477.08,0.141998,-0.00174909
3479.01,0.141294,0.00303853
3480.94,0.140591,0.0133597
3482.87,0.139887,0.0171118
3484.8,0.139183,0.0158328
3486.72,0.13848,0.0184356
3488.65,0.137776,0.019292
3490.58,0.137073,0.019961
3492.51,0.136369,0.0158847
3494.44,0.135666,0.0157299
3496.37,0.134962,0.0155568
3498.3,0.134258,0.0178714
3500.22,0.133555,0.0121262
3502.15,0.132851,0.00896428
3504.08,0.132147,0.0123594
3506.01,0.131444,0.0139381
3507.94,0.13074,0.0154036
3509.87,0.130037,0.0249036
3511.8,0.129333,0.0358677
3513.72,0.12863,0.0371786
3515.65,0.127926,0.028692
3517.58,0.127222,0.0327913
3519.51,0.126519,0.0405036
3521.44,0.125815,0.0448828
3523.37,0.125111,0.0521367
3525.3,0.124408,0.0523013
3527.22,0.123704,0.0518887
3529.15,0.123001,0.0447623
3531.08,0.122297,0.0339938
3533.01,0.121594,0.0344461
3534.94,0.12089,0.0338363
3536.87,0.120186,0.0337487
3538.8,0.119483,0.0335296
3540.72,0.118779,0.0291547
3542.65,0.118076,0.0214217
3544.58,0.117372,0.0325381
3546.51,0.116668,0.0363147
3548.44,0.115965,0.0221799
3550.37,0.115261,0.011051
3552.29,0.114558,0.0233242
3554.22,0.113854,0.0348134
3556.15,0.11315,0.0339708
3558.08,0.112447,0.042048
3560.01,0.111743,0.064727
3561.94,0.11104,0.0832384
3563.86,0.110336,0.0880032
3565.79,0.109632,0.0950115
3567.72,0.108929,0.111744
3569.65,0.108225,0.113201
3571.58,0.107522,0.119954
3573.51,0.106818,0.116529
3575.44,0.106115,0.0959795
3577.36,0.105411,0.065535
3579.29,0.104707,0.0419707
3581.22,0.104004,0.0266258
3583.15,0.1033,0.02058
3585.08,0.102596,0.0115653
3587.01,0.101893,0.0155645
3588.94,0.101189,0.0383682
3590.86,0.100486,0.0356465
3592.79,0.0997819,0.0413483
3594.72,0.0990785,0.0624009
3596.65,0.0983747,0.0835024
3598.58,0.0976713,0.0894747
3600.51,0.0969675,0.0782554
3602.43,0.0962641,0.0462377
3604.36,0.0955603,0.0140951
3606.29,0.0948569,0.00316879
3608.22,0.0941532,0.00469806
3610.15,0.0934497,-0.000414813
3612.08,0.092746,-0.00453323
3614.01,0.0920425,-0.00105164
3615.93,0.0913388,-0.00619628
3617.86,0.0906353,0.000451233
3619.79,0.0899316,0.00997049
3621.72,0.0892281,0.00592428
3623.65,0.0885244,0.00108137