File: olivine/FTIR/SC1-2-800C-7hr-c06-copper-low-baseline.CSV
baseline wavenumber (cm-1),baseline absorbance (cm-1),baseline-subtracted absorbance (cm-1)
3199.38,0.325246,1.70974e-14
3201.308,0.322966,0.0023803
3203.236,0.320697,0.00589029
3205.165,0.318437,0.00847145
3207.093,0.316188,0.0116403
3209.02,0.313949,0.0137091
3210.95,0.311718,0.0152795
3212.88,0.309499,0.0177629
3214.81,0.307288,0.0200268
3216.736,0.305087,0.0184193
3218.664,0.302897,0.0179848
3220.593,0.300716,0.0212139
3222.52,0.298545,0.0204134
3224.449,0.296385,0.0191252
3226.38,0.294233,0.0159468
3228.31,0.292092,0.0120862
3230.235,0.28996,0.0154195
3232.164,0.287838,0.0204528
3234.092,0.285727,0.0261973
3236.02,0.283625,0.0287679
3237.949,0.281533,0.0283663
3239.877,0.279451,0.0278061
3241.81,0.277378,0.0240685
3243.73,0.275316,0.0229102
3245.663,0.273263,0.0253825
3247.592,0.27122,0.0244637
3249.52,0.269187,0.0241416
3251.448,0.267165,0.0259069
3253.377,0.265151,0.0245877
3255.305,0.263148,0.0218008
3257.23,0.261154,0.0240401
3259.16,0.259171,0.0248909
3261.091,0.257196,0.0219069
3263.02,0.255232,0.0221409
3264.948,0.253278,0.0291323
3266.88,0.251334,0.0335343
3268.805,0.249399,0.0289459
3270.73,0.247475,0.0248403
3272.66,0.24556,0.0278779
3274.591,0.243654,0.0307291
3276.52,0.24176,0.0333057
3278.448,0.239874,0.0333849
3280.38,0.237999,0.0317255
3282.304,0.236134,0.0315181
3284.23,0.234278,0.0336172
3286.16,0.232432,0.0335684
3288.09,0.230596,0.0332169
3290.02,0.228769,0.0337154
3291.947,0.226953,0.0321796
3293.875,0.225147,0.035365
3295.804,0.22335,0.0393096
3297.732,0.221564,0.0374888
3299.66,0.219787,0.0371033
3301.59,0.21802,0.0404481
3303.518,0.216262,0.0452664
3305.447,0.214514,0.0426709
3307.375,0.212777,0.039645
3309.303,0.21105,0.0435907
3311.232,0.209332,0.0442627
3313.16,0.207624,0.0411427
3315.09,0.205926,0.0377175
3317.02,0.204238,0.0352964
3318.946,0.202559,0.0355813
3320.875,0.20089,0.0416426
3322.803,0.199232,0.0436865
3324.73,0.197583,0.0432821
3326.66,0.195944,0.0422366
3328.59,0.194315,0.0409787
3330.52,0.192695,0.0481545
3332.445,0.191086,0.0464253
3334.37,0.189486,0.0438667
3336.302,0.187897,0.0477621
3338.23,0.186316,0.0444525
3340.159,0.184746,0.0422569
3342.09,0.183186,0.047765
3344.02,0.181636,0.0542075
3345.945,0.180095,0.0561539
3347.873,0.178564,0.0544073
3349.802,0.177043,0.0532169
3351.73,0.175533,0.0508866
3353.659,0.174031,0.0517188
3355.587,0.17254,0.0552393
3357.52,0.171058,0.0571585
3359.44,0.169587,0.0580907
3361.373,0.168125,0.0580556
3363.302,0.166672,0.0606287
3365.23,0.165231,0.0592544
3367.158,0.163799,0.0553198
3369.087,0.162376,0.0542307
3371.015,0.160964,0.055624
3372.94,0.159561,0.0567438
3374.87,0.158168,0.0588818
3376.801,0.156785,0.0594271
3378.73,0.155412,0.0619915
3380.658,0.154049,0.0606811
3382.586,0.152696,0.0545554
3384.515,0.151352,0.051425
3386.44,0.150018,0.0587736
3388.37,0.148694,0.0632796
3390.3,0.14738,0.0598058
3392.23,0.146076,0.0564518
3394.157,0.144782,0.0591795
3396.086,0.143497,0.062452
3398.014,0.142222,0.0645621
3399.94,0.140957,0.069647
3401.87,0.139703,0.0736608
3403.8,0.138457,0.0715658
3405.728,0.137222,0.0711145
3407.657,0.135996,0.0695441
3409.585,0.134781,0.0672251
3411.514,0.133575,0.0704889
3413.442,0.13238,0.0664873
3415.37,0.131193,0.0658929
3417.3,0.130017,0.069841
3419.228,0.128851,0.0704838
3421.156,0.127695,0.0742826
3423.085,0.126548,0.0760164
3425.013,0.125411,0.0739405
3426.942,0.124284,0.0710714
3428.87,0.123167,0.0765105
3430.8,0.12206,0.0795045
3432.73,0.120962,0.0770348
3434.656,0.119875,0.0746998
3436.58,0.118797,0.076918
3438.513,0.117729,0.082164
3440.441,0.116671,0.0827801
3442.37,0.115623,0.0896448
3444.298,0.114585,0.0884519
3446.23,0.113556,0.0830052
3448.155,0.112538,0.0898474
3450.08,0.111529,0.0908823
3452.012,0.11053,0.0877845
3453.941,0.109541,0.0848957
3455.869,0.108562,0.0879932
3457.798,0.107592,0.0902743
3459.73,0.106633,0.0878818
3461.655,0.105683,0.0898238
3463.583,0.104743,0.0919829
3465.512,0.103813,0.0889005
3467.44,0.102893,0.0917939
3469.369,0.101983,0.0955536
3471.297,0.101083,0.0941659
3473.23,0.100192,0.089611
3475.15,0.0993112,0.0917798
3477.083,0.0984401,0.0960646
3479.011,0.0975793,0.0982317
3480.94,0.0967279,0.102128
3482.868,0.0958867,0.105952
3484.797,0.095055,0.105002
3486.725,0.0942336,0.10783
3488.65,0.0934216,0.111506
3490.58,0.0926198,0.110514
3492.511,0.0918275,0.100561
3494.44,0.0910455,0.0965175
3496.368,0.0902729,0.0956647
3498.296,0.0895105,0.0992573
3500.225,0.0887576,0.0917355
3502.153,0.0880149,0.0834176
3504.08,0.0872817,0.0883402
3506.01,0.0865588,0.0965502
3507.94,0.0858453,0.0990403
3509.867,0.085142,0.0998779
3511.796,0.0844482,0.106223
3513.724,0.0837646,0.110323
3515.653,0.0830905,0.111189
3517.58,0.0824266,0.117534
3519.51,0.0817722,0.124315
3521.438,0.081128,0.129207
3523.367,0.0804933,0.135792
3525.295,0.0798688,0.131221
3527.224,0.0792538,0.123113
3529.152,0.0786489,0.122621
3531.08,0.0780536,0.118835
3533.009,0.0774685,0.112601
3534.938,0.0768929,0.111906
3536.866,0.0763275,0.114188
3538.795,0.0757716,0.110991
3540.723,0.0752258,0.105453
3542.652,0.0746896,0.0998842
3544.58,0.0741636,0.100108
3546.509,0.0736471,0.0949131
3548.437,0.0731407,0.0876312
3550.366,0.0726439,0.0861614
3552.29,0.0721573,0.0978459
3554.223,0.0716802,0.108149
3556.151,0.0712132,0.112613
3558.08,0.0707558,0.120268
3560.008,0.0703085,0.136136
3561.937,0.0698708,0.149825
3563.865,0.0694432,0.155455
3565.79,0.0690252,0.159224
3567.722,0.0686173,0.183655
3569.651,0.068219,0.195805
3571.579,0.0678308,0.201843
3573.508,0.0674523,0.197676
3575.44,0.0670837,0.171989
3577.365,0.0667248,0.1368
3579.29,0.066376,0.107311
3581.222,0.0660368,0.091486
3583.15,0.0657077,0.082039
3585.079,0.0653882,0.0665589
3587.007,0.0650788,0.0646054
3588.94,0.064779,0.0814242
3590.864,0.0644892,0.0819892
3592.79,0.0642092,0.0855694
3594.72,0.0639391,0.102502
3596.65,0.0636787,0.123979
3598.578,0.0634283,0.130231
3600.507,0.0631877,0.116572
3602.435,0.062957,0.0854048
3604.364,0.062736,0.0587134
3606.292,0.062525,0.0441178
3608.22,0.0623238,0.0423956
3610.15,0.0621325,0.0410229
3612.078,0.0619509,0.0316819
3614.006,0.0617793,0.0372964
3615.935,0.0616174,0.0333602
3617.863,0.0614655,0.0315632
3619.792,0.0613233,0.0382794
3621.72,0.0611911,0.0390261
3623.65,0.0610687,0.0306977
3625.577,0.0609561,0.0221948
3627.506,0.0608534,0.00779695
3629.434,0.0607605,0.0296048
3631.363,0.0606775,0.0357875
3633.29,0.0606043,0.0293482
3635.22,0.060541,0.0333139
3637.15,0.0604875,0.0305972
3639.077,0.0604438,0.0277267
3641.005,0.0604101,0.0214843
3642.934,0.0603861,0.0194072
3644.862,0.060372,0.0119101
3646.79,0.0603678,0.00153548
3648.719,0.0603734,0.00874594
3650.65,0.0603889,0.0358748
3652.58,0.0604141,0.0310835
3654.505,0.0604493,0.00513211
3656.433,0.0604943,0.0101067
3658.362,0.0605492,0.0175299
3660.29,0.0606138,0.0130109
3662.219,0.0606884,0.0142361
3664.147,0.0607728,0.0127495
3666.08,0.060867,0.00525411
3668,0.0609711,4.98755e-05
3669.933,0.0610851,0.0190096
3671.861,0.0612088,0.0236993
3673.79,0.0613425,-0.00530842
3675.718,0.0614859,0.0126029
3677.647,0.0616393,0.0222573
3679.575,0.0618024,0.0119925
3681.5,0.0619755,0.0100006
3683.43,0.0621583,0.00613293
3685.361,0.0623511,0.0023695
3687.289,0.0625536,-0.00259599
3689.218,0.0627661,0.0107899
3691.15,0.0629883,0.0119009
3693.075,0.0632205,0.00837705
3695,0.0634624,9.48142e-05
3696.93,0.0637143,0.00312819
3698.86,0.0639759,0.00286659