File: olivine/FTIR/SC1-2-800C-7hr-c08-copper-baseline-low.CSV
wavenumber (/cm),baseline value (/cm),baseline-subtracted absorbance (/cm),
3450.08,0.203679,0.00467896
3452.01,0.202455,0.00284842
3453.94,0.20123,0.000382698
3455.87,0.200005,0.0032297
3457.8,0.19878,0.0027007
3459.73,0.197555,0.00344824
3461.66,0.19633,0.00922926
3463.58,0.195105,0.0114612
3465.51,0.19388,0.0069804
3467.44,0.192655,0.0083036
3469.37,0.19143,0.0132679
3471.3,0.190205,0.0153194
3473.23,0.18898,0.0161843
3475.15,0.187755,0.0158457
3477.08,0.18653,0.0133466
3479.01,0.185305,0.0159273
3480.94,0.18408,0.0234115
3482.87,0.182855,0.0262484
3484.8,0.18163,0.0215594
3486.72,0.180406,0.0218632
3488.65,0.17918,0.0239482
3490.58,0.177956,0.0229526
3492.51,0.17673,0.0212778
3494.44,0.175506,0.0201857
3496.37,0.17428,0.0189582
3498.3,0.173056,0.0210087
3500.22,0.171831,0.0160538
3502.15,0.170606,0.0116745
3504.08,0.169381,0.0165236
3506.01,0.168156,0.0210333
3507.94,0.166931,0.0191584
3509.87,0.165706,0.0244435
3511.8,0.164481,0.0333657
3513.72,0.163256,0.0339636
3515.65,0.162031,0.033753
3517.58,0.160806,0.0411785
3519.51,0.159581,0.047889
3521.44,0.158356,0.0522143
3523.37,0.157131,0.058624
3525.3,0.155906,0.0597289
3527.22,0.154681,0.054162
3529.15,0.153456,0.052614
3531.08,0.152231,0.0494311
3533.01,0.151007,0.0425884
3534.94,0.149781,0.0355872
3536.87,0.148557,0.0348013
3538.8,0.147331,0.0343845
3540.72,0.146107,0.0339843
3542.65,0.144881,0.0328665
3544.58,0.143657,0.0308888
3546.51,0.142432,0.0275599
3548.44,0.141207,0.0226853
3550.37,0.139982,0.0185744
3552.29,0.138757,0.0245459
3554.22,0.137532,0.0355761
3556.15,0.136307,0.0429818
3558.08,0.135082,0.0515841
3560.01,0.133857,0.0666897
3561.94,0.132632,0.0864134
3563.86,0.131407,0.0956473
3565.79,0.130182,0.0972501
3567.72,0.128957,0.119755
3569.65,0.127732,0.138991
3571.58,0.126507,0.147487
3573.51,0.125282,0.141932
3575.44,0.124057,0.115983
3577.36,0.122832,0.0801234
3579.29,0.121608,0.0514315
3581.22,0.120382,0.0349053
3583.15,0.119158,0.0274086
3585.08,0.117932,0.0171809
3587.01,0.116708,0.0147913
3588.94,0.115482,0.0336973
3590.86,0.114258,0.0380838
3592.79,0.113033,0.0426058
3594.72,0.111808,0.0637622
3596.65,0.110583,0.087742
3598.58,0.109358,0.0899597
3600.51,0.108133,0.0702177
3602.43,0.106908,0.0384715
3604.36,0.105683,0.0160498
3606.29,0.104458,0.00577942
3608.22,0.103233,0.00507909
3610.15,0.102008,-0.000145774
3612.08,0.100783,-0.00757257
3614.01,0.0995583,0.00016273
3615.93,0.098333,-0.0036777
3617.86,0.0971084,-0.00670808
3619.79,0.0958831,0.00195326
3621.72,0.0946584,0.00362822
3623.65,0.0934332,-0.00100873