File: olivine/FTIR/SC1-2-800C-7hr-c00-copper.CSV
4.493401e+002,6.000000e+000
4.763391e+002,6.000000e+000
5.033381e+002,7.635773e-001
5.303371e+002,1.328472e+000
5.573361e+002,6.000000e+000
5.843350e+002,2.061935e+000
6.113340e+002,2.048062e+000
6.383330e+002,1.935013e+000
6.653320e+002,1.935057e+000
6.923309e+002,2.094086e+000
7.193300e+002,2.034264e+000
7.463289e+002,1.966943e+000
7.733279e+002,2.052891e+000
8.003269e+002,2.006789e+000
8.273259e+002,1.992168e+000
8.543248e+002,2.080344e+000
8.813238e+002,2.034100e+000
9.083228e+002,2.000278e+000
9.353218e+002,2.022627e+000
9.623207e+002,2.063677e+000
9.893197e+002,2.068151e+000
1.016319e+003,2.039594e+000
1.043318e+003,2.114970e+000
1.070317e+003,2.182673e+000
1.097316e+003,2.099423e+000
1.124315e+003,2.294237e+000
1.151314e+003,2.115525e+000
1.178313e+003,2.149684e+000
1.205312e+003,2.151398e+000
1.232311e+003,2.283967e+000
1.259310e+003,2.149878e+000
1.286308e+003,2.159760e+000
1.313307e+003,2.121162e+000
1.340307e+003,2.096388e+000
1.367305e+003,2.163032e+000
1.394304e+003,2.043339e+000
1.421303e+003,2.101553e+000
1.448302e+003,2.063838e+000
1.475301e+003,2.091586e+000
1.502300e+003,2.073600e+000
1.529299e+003,2.109408e+000
1.556298e+003,2.057870e+000
1.583297e+003,2.175633e+000
1.610296e+003,2.141344e+000
1.637295e+003,2.022224e+000
1.664294e+003,2.249116e+000
1.691293e+003,2.189428e+000
1.718292e+003,2.043700e+000
1.745291e+003,2.316118e+000
1.772290e+003,2.133253e+000
1.799289e+003,2.207649e+000
1.826288e+003,2.220483e+000
1.853287e+003,2.203984e+000
1.880286e+003,2.248731e+000
1.907285e+003,2.210079e+000
1.934284e+003,2.281157e+000
1.961283e+003,2.318052e+000
1.988282e+003,2.266986e+000
2.015281e+003,2.258688e+000
2.042280e+003,2.228171e+000
2.069279e+003,1.791590e+000
2.096278e+003,1.442536e+000
2.123277e+003,1.289605e+000
2.150276e+003,1.193224e+000
2.177275e+003,1.098538e+000
2.204274e+003,1.020037e+000
2.231273e+003,9.537929e-001
2.258272e+003,8.944523e-001
2.285271e+003,8.364075e-001
2.312270e+003,7.952632e-001
2.339269e+003,7.559453e-001
2.366268e+003,7.246526e-001
2.393267e+003,6.528166e-001
2.420266e+003,6.163061e-001
2.447265e+003,5.876533e-001
2.474264e+003,5.681760e-001
2.501262e+003,5.506549e-001
2.528261e+003,5.061782e-001
2.555260e+003,4.821301e-001
2.582260e+003,4.581392e-001
2.609259e+003,4.346960e-001
2.636258e+003,4.169884e-001
2.663256e+003,3.987746e-001
2.690255e+003,3.682052e-001
2.717254e+003,3.399432e-001
2.744253e+003,3.186519e-001
2.771252e+003,3.073264e-001
2.798251e+003,2.980682e-001
2.825250e+003,2.881689e-001
2.852249e+003,2.879894e-001
2.879248e+003,2.657351e-001
2.906247e+003,2.574683e-001
2.933246e+003,2.508905e-001
2.960245e+003,2.356539e-001
2.987244e+003,2.198445e-001
3.014243e+003,1.982849e-001
3.041242e+003,1.783087e-001
3.068241e+003,1.647366e-001
3.095240e+003,1.555248e-001
3.122239e+003,1.480188e-001
3.149238e+003,1.420663e-001
3.176237e+003,1.364632e-001
3.203236e+003,1.336223e-001
3.230235e+003,1.287267e-001
3.257234e+003,1.262204e-001
3.284233e+003,1.211032e-001
3.311232e+003,1.188911e-001
3.338231e+003,1.150228e-001
3.365230e+003,1.135381e-001
3.392229e+003,1.097184e-001
3.419228e+003,1.084370e-001
3.446227e+003,1.055483e-001
3.473226e+003,1.077788e-001
3.500225e+003,1.067609e-001
3.527224e+003,1.126793e-001
3.554223e+003,1.073518e-001
3.581222e+003,1.037828e-001
3.608221e+003,9.749518e-002
3.635220e+003,9.404782e-002
3.662219e+003,8.965365e-002
3.689218e+003,9.205299e-002
3.716217e+003,8.855160e-002
3.743216e+003,8.564119e-002
3.770215e+003,8.679467e-002
3.797214e+003,8.744330e-002
3.824213e+003,8.688276e-002
3.851211e+003,8.302197e-002
3.878210e+003,8.077072e-002
3.905209e+003,8.727402e-002
3.932208e+003,8.364587e-002
3.959208e+003,8.040373e-002
3.986206e+003,7.894540e-002
4.013205e+003,7.715451e-002
4.040204e+003,7.921002e-002
4.067203e+003,7.810921e-002
4.094202e+003,7.874916e-002
4.121201e+003,7.714323e-002
4.148200e+003,7.625876e-002
4.175199e+003,7.702871e-002
4.202198e+003,7.753805e-002
4.229197e+003,7.620928e-002
4.256196e+003,7.664582e-002
4.283195e+003,7.630198e-002
4.310194e+003,7.499950e-002
4.337193e+003,7.472987e-002
4.364192e+003,7.606762e-002
4.391191e+003,7.732250e-002
4.418190e+003,7.651567e-002
4.445189e+003,7.635340e-002
4.472188e+003,7.444134e-002
4.499187e+003,7.656396e-002
4.526186e+003,7.600679e-002
4.553185e+003,7.702737e-002
4.580184e+003,7.690102e-002
4.607183e+003,7.658567e-002
4.634182e+003,7.630967e-002
4.661181e+003,7.563970e-002
4.688180e+003,7.700051e-002
4.715179e+003,7.393460e-002
4.742178e+003,7.491776e-002
4.769177e+003,7.663950e-002
4.796176e+003,7.739317e-002
4.823175e+003,7.587817e-002
4.850174e+003,7.674573e-002
4.877173e+003,7.693168e-002
4.904172e+003,7.657392e-002
4.931171e+003,7.833222e-002
4.958169e+003,7.395939e-002
4.985168e+003,7.674845e-002
5.012167e+003,7.827309e-002
5.039167e+003,7.735655e-002
5.066166e+003,7.729637e-002
5.093165e+003,7.946025e-002
5.120164e+003,7.519212e-002
5.147163e+003,7.770294e-002
5.174162e+003,7.528593e-002
5.201161e+003,7.751911e-002
5.228160e+003,8.128917e-002
5.255158e+003,8.229875e-002
5.282157e+003,7.836480e-002
5.309156e+003,7.931366e-002
5.336155e+003,8.519306e-002
5.363154e+003,8.285877e-002
5.390153e+003,8.258229e-002
5.417152e+003,8.168702e-002
5.444151e+003,8.488625e-002
5.471150e+003,8.215296e-002
5.498149e+003,8.751540e-002
5.525148e+003,8.283816e-002
5.552147e+003,8.325381e-002
5.579146e+003,8.455880e-002
5.606145e+003,8.409381e-002
5.633144e+003,8.955851e-002
5.660143e+003,8.935116e-002
5.687142e+003,8.813816e-002
5.714141e+003,9.567574e-002
5.741140e+003,9.325341e-002
5.768139e+003,9.502815e-002
5.795138e+003,9.831750e-002
5.822137e+003,9.842979e-002
5.849136e+003,1.065938e-001
5.876135e+003,1.067820e-001
5.903134e+003,1.086126e-001
5.930133e+003,1.174203e-001
5.957132e+003,1.138697e-001
5.984131e+003,1.130093e-001
6.011130e+003,1.241198e-001
6.038129e+003,1.274272e-001
6.065128e+003,1.268320e-001
6.092127e+003,1.450227e-001
6.119126e+003,1.483480e-001
6.146125e+003,1.598769e-001
6.173124e+003,1.730626e-001
6.200123e+003,1.755889e-001
6.227122e+003,1.807595e-001
6.254121e+003,1.866648e-001
6.281120e+003,2.075177e-001
6.308119e+003,2.143547e-001
6.335118e+003,2.263103e-001
6.362117e+003,2.358031e-001
6.389116e+003,2.429785e-001
6.416115e+003,2.735206e-001
6.443113e+003,2.923360e-001
6.470112e+003,2.980284e-001
6.497111e+003,3.243894e-001
6.524110e+003,3.450125e-001
6.551109e+003,3.630786e-001
6.578108e+003,3.983565e-001
6.605107e+003,4.086342e-001
6.632106e+003,4.559171e-001
6.659105e+003,4.733008e-001
6.686104e+003,4.915354e-001
6.713104e+003,5.218549e-001
6.740102e+003,5.639954e-001
6.767101e+003,5.756544e-001
6.794100e+003,6.181622e-001
6.821099e+003,6.118479e-001
6.848098e+003,6.771324e-001
6.875097e+003,7.739547e-001
6.902096e+003,7.272168e-001
6.929095e+003,8.019202e-001
6.956094e+003,8.226100e-001
6.983093e+003,9.436435e-001
7.010092e+003,9.199678e-001
7.037091e+003,1.062975e+000
7.064090e+003,9.170828e-001
7.091089e+003,9.538710e-001
7.118088e+003,1.062109e+000
7.145087e+003,1.176057e+000
7.172086e+003,1.039118e+000
7.199085e+003,1.181913e+000
7.226084e+003,1.090298e+000
7.253083e+003,1.454205e+000
7.280082e+003,1.145403e+000
7.307081e+003,1.355097e+000
7.334080e+003,1.411117e+000
7.361079e+003,1.396501e+000
7.388078e+003,1.202067e+000
7.415077e+003,1.246042e+000
7.442076e+003,1.582042e+000
7.469075e+003,1.061882e+000
7.496074e+003,1.440009e+000
7.523073e+003,1.276132e+000
7.550072e+003,1.494517e+000
7.577071e+003,1.119212e+000
7.604070e+003,1.774246e+000
7.631068e+003,1.634165e+000
7.658067e+003,6.000000e+000
7.685066e+003,6.000000e+000
7.712065e+003,1.040564e+000
7.739064e+003,1.292889e+000
7.766063e+003,1.233011e+000
7.793063e+003,1.251676e+000
7.820062e+003,1.313408e+000
7.847061e+003,2.044143e+000
7.874060e+003,6.000000e+000
7.901059e+003,6.000000e+000
7.928057e+003,1.043435e+000
7.955056e+003,6.000000e+000
7.982055e+003,1.122295e+000
8.009054e+003,1.198144e+000
8.036053e+003,2.009676e+000
8.063052e+003,6.000000e+000
8.090051e+003,9.411728e-001
8.117050e+003,6.000000e+000
8.144049e+003,2.076179e+000
8.171048e+003,1.493368e+000
8.198047e+003,6.000000e+000
8.225046e+003,6.000000e+000
8.252045e+003,6.000000e+000
8.279044e+003,1.662493e+000
8.306043e+003,1.500615e+000
8.333042e+003,6.000000e+000
8.360041e+003,1.130242e+000
8.387040e+003,1.853941e+000
8.414039e+003,7.599202e-001
8.441038e+003,6.000000e+000
8.468037e+003,6.000000e+000
8.495036e+003,6.027659e-001
8.500821e+003,6.000000e+000