File: olivine/FTIR/SC1-2-800C-7hr-c02-copper-baseline-high.CSV
wavenumber (/cm),baseline value (/cm),baseline-subtracted absorbance (/cm),
3149.24,0.333366,1.75579e-05
3151.17,0.331074,0.00549528
3153.09,0.328792,0.00505476
3155.02,0.326519,0.00130063
3156.95,0.324254,0.00186007
3158.88,0.321999,0.00311788
3160.81,0.319754,-2.46689e-06
3162.74,0.317518,-0.000533052
3164.67,0.315292,-0.000750887
3166.59,0.313075,0.00276119
3168.52,0.310867,0.0048431
3170.45,0.308668,0.00215188
3172.38,0.306479,0.000177053
3174.31,0.304299,0.00118814
3176.24,0.302129,0.00231824
3178.17,0.299967,0.00331411
3180.09,0.297816,0.00267098
3182.02,0.295674,-0.00107908
3183.95,0.29354,0.0045124
3185.88,0.291416,0.0116207
3187.81,0.289302,0.00934093
3189.74,0.287196,0.004068
3191.66,0.285101,0.00555917
3193.59,0.283014,0.0105146
3195.52,0.280938,0.011312
3197.45,0.278871,0.00847135
3199.38,0.276812,0.00714403
3201.31,0.274763,0.00622274
3203.24,0.272724,0.00954915
3205.16,0.270693,0.0131138
3207.09,0.268673,0.0150591
3209.02,0.266662,0.0159212
3210.95,0.264659,0.0166058
3212.88,0.262667,0.0175229
3214.81,0.260683,0.0180586
3216.74,0.258708,0.0153192
3218.66,0.256744,0.0173724
3220.59,0.254788,0.0199819
3222.52,0.252842,0.0208402
3224.45,0.250906,0.024985
3226.38,0.248978,0.0226319
3228.31,0.247061,0.0178091
3230.24,0.245152,0.0157591
3232.16,0.243252,0.0171066
3234.09,0.241362,0.020915
3236.02,0.239481,0.0247141
3237.95,0.23761,0.0252324
3239.88,0.235749,0.0219168
3241.81,0.233896,0.0201232
3243.73,0.232053,0.0232348
3245.66,0.230219,0.0271219
3247.59,0.228394,0.0231309
3249.52,0.226579,0.0214059
3251.45,0.224774,0.0210965
3253.38,0.222977,0.0205426
3255.3,0.22119,0.0196326
3257.23,0.219412,0.0209839
3259.16,0.217644,0.0256217
3261.09,0.215885,0.0258997
3263.02,0.214135,0.022875
3264.95,0.212395,0.0249327
3266.88,0.210664,0.0309971
3268.8,0.208942,0.0321166
3270.73,0.20723,0.0255874
3272.66,0.205527,0.0266811
3274.59,0.203833,0.0303968
3276.52,0.202149,0.0327221
3278.45,0.200474,0.0329836
3280.38,0.198809,0.030026
3282.3,0.197153,0.0271679
3284.23,0.195506,0.0283919
3286.16,0.193869,0.0328096
3288.09,0.19224,0.0347964
3290.02,0.190621,0.0303036
3291.95,0.189012,0.0288136
3293.88,0.187412,0.0347433
3295.8,0.185821,0.0354369
3297.73,0.18424,0.034437
3299.66,0.182668,0.0341909
3301.59,0.181106,0.0378544
3303.52,0.179552,0.0453447
3305.45,0.178008,0.0425665
3307.38,0.176473,0.0378546
3309.3,0.174949,0.0365422
3311.23,0.173432,0.0405006
3313.16,0.171926,0.041415
3315.09,0.170428,0.0341159
3317.02,0.168941,0.0306864
3318.95,0.167462,0.0367354
3320.88,0.165993,0.0366693
3322.8,0.164533,0.0373718
3324.73,0.163083,0.0397476
3326.66,0.161642,0.0387153
3328.59,0.16021,0.0393929
3330.52,0.158788,0.0443463
3332.45,0.157375,0.0460821
3334.37,0.155971,0.0440843
3336.3,0.154577,0.0452042
3338.23,0.153191,0.0406655
3340.16,0.151816,0.0418935
3342.09,0.15045,0.044109
3344.02,0.149093,0.0424035
3345.95,0.147745,0.0438548
3347.87,0.146407,0.047384
3349.8,0.145078,0.0467031
3351.73,0.143759,0.0403739
3353.66,0.142448,0.0432377
3355.59,0.141148,0.0502329
3357.52,0.139856,0.0522947
3359.44,0.138574,0.0506156
3361.37,0.137301,0.0510496
3363.3,0.136037,0.0553166
3365.23,0.134784,0.0518116
3367.16,0.133539,0.0489751
3369.09,0.132303,0.0507806
3371.01,0.131078,0.0492477
3372.94,0.129861,0.049142
3374.87,0.128654,0.0517272
3376.8,0.127455,0.0513367
3378.73,0.126267,0.0526935
3380.66,0.125088,0.0508141
3382.59,0.123918,0.0470855
3384.51,0.122757,0.0484368
3386.44,0.121606,0.0552583
3388.37,0.120464,0.0591872
3390.3,0.119332,0.0519743
3392.23,0.118208,0.0468774
3394.16,0.117095,0.0501826
3396.09,0.11599,0.0510691
3398.01,0.114895,0.0568564
3399.94,0.113809,0.0675599
3401.87,0.112733,0.0662536
3403.8,0.111666,0.0601169
3405.73,0.110608,0.0575593
3407.66,0.10956,0.0561549
3409.59,0.108521,0.0562386
3411.51,0.107491,0.0607996
3413.44,0.106471,0.0616286
3415.37,0.10546,0.0597565
3417.3,0.104459,0.0600613
3419.23,0.103466,0.058901
3421.16,0.102483,0.0602506
3423.09,0.10151,0.0550969
3425.01,0.100546,0.0558275
3426.94,0.0995907,0.0617966
3428.87,0.0986454,0.0660293
3430.8,0.0977091,0.0668899
3432.73,0.0967825,0.0646774
3434.66,0.0958648,0.0643811
3436.58,0.094957,0.066363
3438.51,0.094058,0.0674649
3440.44,0.0931689,0.0675007
3442.37,0.0922886,0.0689806
3444.3,0.0914182,0.0667519
3446.23,0.0905566,0.0675475
3448.16,0.0897049,0.0715784
3450.08,0.0888621,0.0680347
3452.01,0.088029,0.068585
3453.94,0.0872049,0.0660505
3455.87,0.0863905,0.0660893
3457.8,0.0855851,0.0673897
3459.73,0.0847894,0.0734909
3461.66,0.0840027,0.080703
3463.58,0.0832258,0.0816098
3465.51,0.0824577,0.0727058
3467.44,0.0816995,0.0716477
3469.37,0.0809502,0.0760427
3471.3,0.0802106,0.0802444
3473.23,0.07948,0.0784284
3475.15,0.0787591,0.0772533
3477.08,0.0780473,0.0766064
3479.01,0.0773451,0.0765768
3480.94,0.0766519,0.0823263
3482.87,0.0759684,0.0840474
3484.8,0.075294,0.0840784
3486.72,0.0746292,0.0892402
3488.65,0.0739734,0.0863022
3490.58,0.0733273,0.0832089
3492.51,0.0726903,0.0800868
3494.44,0.0720629,0.0761714
3496.37,0.0714445,0.0748835
3498.3,0.0708359,0.0803769
3500.22,0.0702362,0.0750264
3502.15,0.0696462,0.0679062
3504.08,0.0690653,0.077579
3506.01,0.068494,0.0860039
3507.94,0.0679318,0.0890958
3509.87,0.0673792,0.0941504
3511.8,0.0668356,0.098291
3513.72,0.0663018,0.100784
3515.65,0.0657769,0.0984818
3517.58,0.0652617,0.100718
3519.51,0.0647556,0.108057
3521.44,0.0642591,0.109023
3523.37,0.0637717,0.11553
3525.3,0.0632939,0.116256
3527.22,0.0628252,0.106523
3529.15,0.0623661,0.106901
3531.08,0.0619161,0.108952
3533.01,0.0614757,0.100632
3534.94,0.0610445,0.091685
3536.87,0.0606227,0.0939556
3538.8,0.0602102,0.0905977
3540.72,0.0598072,0.0877757
3542.65,0.0594133,0.0845124
3544.58,0.059029,0.0844015
3546.51,0.0586538,0.0876943
3548.44,0.0582882,0.0825215
3550.37,0.0579318,0.0770281
3552.29,0.0575848,0.0816407
3554.22,0.0572471,0.0901723
3556.15,0.0569189,0.0943402
3558.08,0.0565998,0.104435
3560.01,0.0562903,0.121947
3561.94,0.05599,0.136591
3563.86,0.0556992,0.138128
3565.79,0.0554175,0.140566
3567.72,0.0551454,0.161097
3569.65,0.0548825,0.17583
3571.58,0.0546291,0.181868
3573.51,0.0543848,0.176156
3575.44,0.0541501,0.15481
3577.36,0.0539246,0.123283
3579.29,0.0537086,0.0976582
3581.22,0.0535018,0.0822237
3583.15,0.0533044,0.0708691
3585.08,0.0531163,0.0601091
3587.01,0.0529377,0.0689107
3588.94,0.0527683,0.0910829
3590.86,0.0526084,0.0859481
3592.79,0.0524577,0.0860321
3594.72,0.0523165,0.0988207
3596.65,0.0521845,0.118993
3598.58,0.052062,0.130682
3600.51,0.0519487,0.112984
3602.43,0.0518448,0.0785985
3604.36,0.0517503,0.0565844
3606.29,0.0516651,0.0410843
3608.22,0.0515893,0.0410053
3610.15,0.0515228,0.0467201
3612.08,0.0514657,0.0428625
3614.01,0.0514179,0.0436709
3615.93,0.0513795,0.0343552
3617.86,0.0513504,0.0328581
3619.79,0.0513307,0.0428669
3621.72,0.0513204,0.0402334
3623.65,0.0513193,0.0333297
3625.58,0.0513277,0.0295995
3627.51,0.0513454,0.0275147
3629.43,0.0513724,0.0529588
3631.36,0.0514088,0.0394087
3633.29,0.0514545,0.0251786
3635.22,0.0515096,0.0294496
3637.15,0.0515741,0.0219168
3639.08,0.0516479,0.0162423
3641.01,0.051731,0.0183486
3642.93,0.0518235,0.0201986
3644.86,0.0519253,0.00937897
3646.79,0.0520366,0.00368086
3648.72,0.0521571,0.023273
3650.65,0.052287,0.0450821
3652.58,0.0524262,0.0335011
3654.51,0.0525749,0.0110093
3656.43,0.0527328,0.0130916
3658.36,0.0529001,0.0122924
3660.29,0.0530768,0.00523594
3662.22,0.0532628,0.00581199
3664.15,0.0534581,0.00379747
3666.08,0.0536629,-0.00206584
3668,0.0538769,-0.00678895
3669.93,0.0541004,0.00546535
3671.86,0.0543331,0.0129633
3673.79,0.0545752,-0.00560005
3675.72,0.0548266,0.0139892
3677.65,0.0550875,0.0207661
3679.57,0.0553576,0.0125896
3681.5,0.0556372,0.0071306
3683.43,0.055926,0.00188006
3685.36,0.0562243,7.33734e-05
3687.29,0.0565318,-0.00905895
3689.22,0.0568488,0.00444584
3691.15,0.057175,0.0165119
3693.07,0.0575107,0.0131911
3695,0.0578556,0.00331305
3696.93,0.05821,0.00105754