File: olivine/FTIR/SC1-2-800C-7hr-c02-copper.CSV
4.493401e+002,9.314233e-002
4.763391e+002,3.017780e-001
5.033381e+002,8.130140e-001
5.303371e+002,5.402598e-001
5.573361e+002,1.449325e+000
5.843350e+002,1.564487e+000
6.113340e+002,2.098312e+000
6.383330e+002,1.824858e+000
6.653320e+002,1.940738e+000
6.923309e+002,1.959384e+000
7.193300e+002,2.065691e+000
7.463289e+002,1.952916e+000
7.733279e+002,2.018238e+000
8.003269e+002,1.986958e+000
8.273259e+002,2.155038e+000
8.543248e+002,2.054435e+000
8.813238e+002,1.957111e+000
9.083228e+002,1.998083e+000
9.353218e+002,2.076924e+000
9.623207e+002,2.095402e+000
9.893197e+002,2.053981e+000
1.016319e+003,2.113125e+000
1.043318e+003,2.178214e+000
1.070317e+003,2.082618e+000
1.097316e+003,2.221406e+000
1.124315e+003,2.228903e+000
1.151314e+003,2.136347e+000
1.178313e+003,2.149808e+000
1.205312e+003,2.190321e+000
1.232311e+003,2.148881e+000
1.259310e+003,2.077341e+000
1.286308e+003,2.126871e+000
1.313307e+003,2.121894e+000
1.340307e+003,2.105837e+000
1.367305e+003,2.102114e+000
1.394304e+003,2.137899e+000
1.421303e+003,2.106886e+000
1.448302e+003,2.174381e+000
1.475301e+003,2.093042e+000
1.502300e+003,2.107622e+000
1.529299e+003,2.101605e+000
1.556298e+003,2.083227e+000
1.583297e+003,2.132436e+000
1.610296e+003,2.176460e+000
1.637295e+003,2.030149e+000
1.664294e+003,2.191355e+000
1.691293e+003,2.112964e+000
1.718292e+003,2.176575e+000
1.745291e+003,2.232131e+000
1.772290e+003,2.168657e+000
1.799289e+003,2.163133e+000
1.826288e+003,2.208328e+000
1.853287e+003,2.314319e+000
1.880286e+003,2.275104e+000
1.907285e+003,2.254388e+000
1.934284e+003,2.215667e+000
1.961283e+003,2.219640e+000
1.988282e+003,2.226700e+000
2.015281e+003,2.161636e+000
2.042280e+003,2.172629e+000
2.069279e+003,1.780498e+000
2.096278e+003,1.396784e+000
2.123277e+003,1.252343e+000
2.150276e+003,1.146806e+000
2.177275e+003,1.070069e+000
2.204274e+003,9.901262e-001
2.231273e+003,9.170308e-001
2.258272e+003,8.537396e-001
2.285271e+003,8.004415e-001
2.312270e+003,7.558181e-001
2.339269e+003,7.109900e-001
2.366268e+003,6.678433e-001
2.393267e+003,6.129698e-001
2.420266e+003,5.769156e-001
2.447265e+003,5.456795e-001
2.474264e+003,5.295759e-001
2.501262e+003,5.104342e-001
2.528261e+003,4.663712e-001
2.555260e+003,4.405268e-001
2.582260e+003,4.173279e-001
2.609259e+003,3.943704e-001
2.636258e+003,3.759688e-001
2.663256e+003,3.567828e-001
2.690255e+003,3.266712e-001
2.717254e+003,2.983429e-001
2.744253e+003,2.777740e-001
2.771252e+003,2.648735e-001
2.798251e+003,2.557602e-001
2.825250e+003,2.469616e-001
2.852249e+003,2.473069e-001
2.879248e+003,2.248794e-001
2.906247e+003,2.157414e-001
2.933246e+003,2.096686e-001
2.960245e+003,1.947095e-001
2.987244e+003,1.788599e-001
3.014243e+003,1.557088e-001
3.041242e+003,1.362536e-001
3.068241e+003,1.210074e-001
3.095240e+003,1.139129e-001
3.122239e+003,1.054946e-001
3.149238e+003,1.008386e-001
3.176237e+003,9.511311e-002
3.203236e+003,9.072576e-002
3.230235e+003,8.649905e-002
3.257234e+003,8.244006e-002
3.284233e+003,7.917567e-002
3.311232e+003,7.720402e-002
3.338231e+003,7.323180e-002
3.365230e+003,7.179497e-002
3.392229e+003,6.753913e-002
3.419228e+003,6.700122e-002
3.446227e+003,6.615775e-002
3.473226e+003,6.611902e-002
3.500225e+003,6.361692e-002
3.527224e+003,6.838253e-002
3.554223e+003,6.404367e-002
3.581222e+003,6.172990e-002
3.608221e+003,5.319603e-002
3.635220e+003,5.089385e-002
3.662219e+003,4.656380e-002
3.689218e+003,4.700302e-002
3.716217e+003,4.501173e-002
3.743216e+003,4.023692e-002
3.770215e+003,4.363837e-002
3.797214e+003,4.174339e-002
3.824213e+003,4.230177e-002
3.851211e+003,3.714720e-002
3.878210e+003,3.816129e-002
3.905209e+003,3.836086e-002
3.932208e+003,3.934097e-002
3.959208e+003,3.708974e-002
3.986206e+003,3.629084e-002
4.013205e+003,3.497674e-002
4.040204e+003,3.489389e-002
4.067203e+003,3.441172e-002
4.094202e+003,3.591839e-002
4.121201e+003,3.422691e-002
4.148200e+003,3.263178e-002
4.175199e+003,3.289833e-002
4.202198e+003,3.174132e-002
4.229197e+003,3.354212e-002
4.256196e+003,3.139351e-002
4.283195e+003,3.214766e-002
4.310194e+003,3.101321e-002
4.337193e+003,3.240081e-002
4.364192e+003,3.181853e-002
4.391191e+003,3.148759e-002
4.418190e+003,3.120214e-002
4.445189e+003,3.307690e-002
4.472188e+003,3.202230e-002
4.499187e+003,3.237290e-002
4.526186e+003,3.258739e-002
4.553185e+003,3.322564e-002
4.580184e+003,3.267336e-002
4.607183e+003,3.344209e-002
4.634182e+003,3.088775e-002
4.661181e+003,3.002808e-002
4.688180e+003,3.422723e-002
4.715179e+003,3.153031e-002
4.742178e+003,3.155738e-002
4.769177e+003,3.249243e-002
4.796176e+003,3.030554e-002
4.823175e+003,3.054528e-002
4.850174e+003,3.126662e-002
4.877173e+003,3.088109e-002
4.904172e+003,3.290652e-002
4.931171e+003,3.273503e-002
4.958169e+003,2.939632e-002
4.985168e+003,3.258624e-002
5.012167e+003,2.945471e-002
5.039167e+003,2.923457e-002
5.066166e+003,3.293783e-002
5.093165e+003,3.208508e-002
5.120164e+003,3.114718e-002
5.147163e+003,3.133660e-002
5.174162e+003,3.287564e-002
5.201161e+003,3.331753e-002
5.228160e+003,3.389785e-002
5.255158e+003,3.158083e-002
5.282157e+003,3.466763e-002
5.309156e+003,3.469979e-002
5.336155e+003,4.065643e-002
5.363154e+003,3.677333e-002
5.390153e+003,3.329661e-002
5.417152e+003,3.640288e-002
5.444151e+003,3.635946e-002
5.471150e+003,3.551163e-002
5.498149e+003,3.880282e-002
5.525148e+003,3.646468e-002
5.552147e+003,4.070610e-002
5.579146e+003,3.694664e-002
5.606145e+003,3.832655e-002
5.633144e+003,4.293516e-002
5.660143e+003,4.274939e-002
5.687142e+003,4.064555e-002
5.714141e+003,4.688023e-002
5.741140e+003,4.518487e-002
5.768139e+003,5.022600e-002
5.795138e+003,4.534991e-002
5.822137e+003,5.334593e-002
5.849136e+003,5.321348e-002
5.876135e+003,5.869997e-002
5.903134e+003,5.993814e-002
5.930133e+003,6.553654e-002
5.957132e+003,6.685498e-002
5.984131e+003,6.619754e-002
6.011130e+003,8.183289e-002
6.038129e+003,7.783689e-002
6.065128e+003,8.819941e-002
6.092127e+003,9.517147e-002
6.119126e+003,9.891161e-002
6.146125e+003,1.085390e-001
6.173124e+003,1.210295e-001
6.200123e+003,1.253525e-001
6.227122e+003,1.300582e-001
6.254121e+003,1.425389e-001
6.281120e+003,1.534412e-001
6.308119e+003,1.617746e-001
6.335118e+003,1.791852e-001
6.362117e+003,1.824532e-001
6.389116e+003,2.080559e-001
6.416115e+003,2.190811e-001
6.443113e+003,2.395502e-001
6.470112e+003,2.465897e-001
6.497111e+003,2.732147e-001
6.524110e+003,3.018031e-001
6.551109e+003,3.176364e-001
6.578108e+003,3.289991e-001
6.605107e+003,3.648114e-001
6.632106e+003,3.929492e-001
6.659105e+003,4.031412e-001
6.686104e+003,4.368269e-001
6.713104e+003,4.642369e-001
6.740102e+003,5.272025e-001
6.767101e+003,5.202949e-001
6.794100e+003,5.535749e-001
6.821099e+003,5.672579e-001
6.848098e+003,6.216466e-001
6.875097e+003,6.819678e-001
6.902096e+003,6.967257e-001
6.929095e+003,8.000566e-001
6.956094e+003,8.366042e-001
6.983093e+003,7.888768e-001
7.010092e+003,8.808765e-001
7.037091e+003,9.108970e-001
7.064090e+003,9.119141e-001
7.091089e+003,9.780650e-001
7.118088e+003,1.010499e+000
7.145087e+003,9.157004e-001
7.172086e+003,1.195819e+000
7.199085e+003,1.225676e+000
7.226084e+003,1.455874e+000
7.253083e+003,1.279498e+000
7.280082e+003,1.440270e+000
7.307081e+003,1.082532e+000
7.334080e+003,1.240824e+000
7.361079e+003,1.553680e+000
7.388078e+003,1.248256e+000
7.415077e+003,1.184040e+000
7.442076e+003,1.351018e+000
7.469075e+003,1.587390e+000
7.496074e+003,1.172426e+000
7.523073e+003,1.566445e+000
7.550072e+003,1.178162e+000
7.577071e+003,1.373744e+000
7.604070e+003,1.532680e+000
7.631068e+003,6.000000e+000
7.658067e+003,1.868057e+000
7.685066e+003,1.291391e+000
7.712065e+003,6.000000e+000
7.739064e+003,1.139692e+000
7.766063e+003,1.767312e+000
7.793063e+003,6.000000e+000
7.820062e+003,1.254122e+000
7.847061e+003,1.931068e+000
7.874060e+003,1.265096e+000
7.901059e+003,6.000000e+000
7.928057e+003,2.840674e+000
7.955056e+003,9.384574e-001
7.982055e+003,8.820351e-001
8.009054e+003,6.000000e+000
8.036053e+003,9.228327e-001
8.063052e+003,1.361107e+000
8.090051e+003,1.163592e+000
8.117050e+003,1.840467e+000
8.144049e+003,1.060396e+000
8.171048e+003,7.130381e-001
8.198047e+003,1.194384e+000
8.225046e+003,9.362549e-001
8.252045e+003,6.000000e+000
8.279044e+003,5.208293e-001
8.306043e+003,6.000000e+000
8.333042e+003,1.189029e+000
8.360041e+003,6.000000e+000
8.387040e+003,1.352944e+000
8.414039e+003,1.085440e+000
8.441038e+003,8.395261e-001
8.468037e+003,1.141469e+000
8.495036e+003,6.605991e-001
8.500821e+003,3.537179e-001