File: olivine/FTIR/SC1-2-800C-7hr-c02-copper-baseline.CSV
baseline wavenumber (cm-1),baseline absorbance (cm-1),baseline-subtracted absorbance (cm-1)
3199.379,0.283956,1.63758e-14
3201.308,0.282173,-0.00118798
3203.236,0.280399,0.00187419
3205.165,0.27863,0.00517674
3207.093,0.276869,0.00686252
3209.021,0.275116,0.00746728
3210.95,0.273368,0.0078968
3212.878,0.271628,0.00856118
3214.807,0.269895,0.00884639
3216.736,0.268168,0.00585887
3218.664,0.26645,0.00766641
3220.593,0.264737,0.0100323
3222.521,0.263033,0.0106495
3224.449,0.261335,0.0145556
3226.378,0.259644,0.0119659
3228.306,0.257961,0.00690899
3230.235,0.256284,0.00462709
3232.164,0.254613,0.00574495
3234.092,0.252951,0.00932616
3236.021,0.251295,0.0129003
3237.949,0.249647,0.013196
3239.877,0.248006,0.00966021
3241.806,0.246371,0.00764854
3243.734,0.244744,0.0105446
3245.663,0.243123,0.0142182
3247.592,0.241509,0.0100162
3249.52,0.239903,0.00808256
3251.448,0.238304,0.00756677
3253.377,0.236711,0.00680874
3255.305,0.235126,0.00569706
3257.234,0.233547,0.0068489
3259.162,0.231976,0.0112896
3261.091,0.230412,0.0113727
3263.02,0.228854,0.00815549
3264.948,0.227305,0.010023
3266.876,0.225762,0.0158996
3268.805,0.224225,0.0168335
3270.733,0.222697,0.0101212
3272.662,0.221174,0.0110339
3274.591,0.219659,0.014571
3276.519,0.218151,0.0167201
3278.448,0.21665,0.0168075
3280.376,0.215156,0.0136783
3282.304,0.21367,0.0106509
3284.233,0.21219,0.0117079
3286.161,0.210717,0.015961
3288.09,0.209251,0.0177853
3290.019,0.207792,0.0131324
3291.947,0.206341,0.0114848
3293.875,0.204897,0.0172591
3295.804,0.203459,0.0177995
3297.732,0.202028,0.0166489
3299.661,0.200605,0.0162543
3301.589,0.199188,0.0197716
3303.518,0.197779,0.0271181
3305.447,0.196376,0.0241983
3307.375,0.194981,0.0193472
3309.303,0.193593,0.017898
3311.232,0.192211,0.0217218
3313.16,0.190837,0.0225039
3315.089,0.18947,0.0150749
3317.017,0.18811,0.0115178
3318.946,0.186756,0.0174414
3320.875,0.18541,0.0172523
3322.803,0.184071,0.0178341
3324.731,0.182739,0.0200916
3326.66,0.181414,0.0189432
3328.588,0.180096,0.0195072
3330.517,0.178785,0.0243491
3332.445,0.177481,0.0259759
3334.374,0.176184,0.0238713
3336.302,0.174894,0.0248868
3338.231,0.173611,0.0202459
3340.159,0.172336,0.0213741
3342.088,0.171067,0.0234921
3344.016,0.169805,0.0216914
3345.945,0.16855,0.0230498
3347.873,0.167303,0.0264885
3349.802,0.166062,0.0257193
3351.73,0.164828,0.0193042
3353.659,0.163602,0.0220843
3355.587,0.162382,0.0289983
3357.516,0.16117,0.030981
3359.444,0.159964,0.0292253
3361.373,0.158766,0.029585
3363.302,0.157574,0.03378
3365.23,0.15639,0.0302053
3367.158,0.155213,0.0273014
3369.087,0.154042,0.0290418
3371.015,0.152879,0.0274462
3372.944,0.151723,0.02728
3374.872,0.150574,0.0298071
3376.801,0.149431,0.0293607
3378.729,0.148297,0.0306641
3380.658,0.147168,0.0287335
3382.586,0.146047,0.024956
3384.515,0.144933,0.0262608
3386.443,0.143826,0.0330381
3388.372,0.142726,0.036925
3390.3,0.141634,0.0296726
3392.229,0.140547,0.0245384
3394.157,0.139469,0.0278087
3396.086,0.138397,0.0286626
3398.014,0.137332,0.0344195
3399.943,0.136274,0.045095
3401.871,0.135224,0.043763
3403.8,0.13418,0.0376029
3405.728,0.133143,0.0350242
3407.657,0.132114,0.0336011
3409.585,0.131091,0.0336684
3411.514,0.130075,0.0382153
3413.442,0.129067,0.0390325
3415.371,0.128065,0.037151
3417.299,0.127071,0.0374485
3419.228,0.126084,0.0362835
3421.156,0.125104,0.0376305
3423.085,0.12413,0.0324766
3425.013,0.123164,0.0332094
3426.942,0.122204,0.0391828
3428.87,0.121252,0.0434223
3430.799,0.120307,0.0442919
3432.727,0.119369,0.0420908
3434.656,0.118438,0.0418082
3436.584,0.117514,0.0438062
3438.513,0.116597,0.0449264
3440.441,0.115687,0.0449828
3442.37,0.114784,0.0464857
3444.298,0.113888,0.0442823
3446.227,0.112999,0.0451055
3448.155,0.112117,0.0491662
3450.084,0.111242,0.0456548
3452.012,0.110374,0.0462396
3453.941,0.109513,0.0437419
3455.869,0.10866,0.04382
3457.798,0.107813,0.0451618
3459.726,0.106973,0.0513068
3461.655,0.106141,0.0585651
3463.583,0.105315,0.0595203
3465.512,0.104496,0.0506671
3467.44,0.103685,0.0496621
3469.369,0.10288,0.0541125
3471.297,0.102083,0.0583719
3473.226,0.101292,0.0566159
3475.154,0.100509,0.0555031
3477.083,0.0997327,0.054921
3479.011,0.0989636,0.0549583
3480.94,0.0982011,0.0607771
3482.868,0.097446,0.0625698
3484.797,0.0966976,0.0626747
3486.725,0.0959566,0.0679128
3488.654,0.0952223,0.0650533
3490.582,0.0944953,0.0620409
3492.511,0.0937751,0.0590021
3494.439,0.0930622,0.0551721
3496.368,0.092356,0.0539721
3498.296,0.0916572,0.0595555
3500.225,0.090965,0.0542976
3502.153,0.0902803,0.0472721
3504.082,0.0896023,0.057042
3506.01,0.0889316,0.0655664
3507.939,0.0882676,0.06876
3509.867,0.087611,0.0739186
3511.796,0.0869611,0.0781656
3513.724,0.0863185,0.0807674
3515.653,0.0856827,0.0785761
3517.581,0.0850542,0.080926
3519.51,0.0844324,0.0883806
3521.438,0.083818,0.0894642
3523.367,0.0832103,0.0960911
3525.295,0.08261,0.0969396
3527.224,0.0820164,0.087332
3529.152,0.0814301,0.0878373
3531.081,0.0808505,0.0900174
3533.009,0.0802783,0.0818295
3534.938,0.0797128,0.0730166
3536.866,0.0791547,0.0754237
3538.795,0.0786033,0.0722046
3540.723,0.0780592,0.0695237
3542.652,0.0775219,0.0664038
3544.58,0.0769918,0.0664386
3546.509,0.0764686,0.0698795
3548.437,0.0759526,0.064857
3550.366,0.0754434,0.0595164
3552.294,0.0749415,0.064284
3554.223,0.0744464,0.072973
3556.151,0.0739586,0.0773004
3558.08,0.0734776,0.0875571
3560.008,0.0730038,0.105233
3561.937,0.0725368,0.120045
3563.865,0.0720771,0.12175
3565.794,0.0716242,0.124359
3567.722,0.0711786,0.145064
3569.651,0.0707398,0.159973
3571.579,0.0703082,0.166189
3573.508,0.0698835,0.160657
3575.436,0.069466,0.139494
3577.365,0.0690553,0.108152
3579.293,0.0686519,0.0827149
3581.222,0.0682552,0.0674702
3583.15,0.0678659,0.0563077
3585.079,0.0674833,0.0457421
3587.007,0.067108,0.0547404
3588.936,0.0667396,0.0771117
3590.864,0.0663783,0.0721782
3592.793,0.066024,0.0724659
3594.721,0.0656768,0.0854603
3596.65,0.0653365,0.105841
3598.578,0.0650034,0.11774
3600.507,0.0646771,0.100256
3602.435,0.0643581,0.0660853
3604.364,0.0640459,0.0442888
3606.292,0.0637409,0.0290085
3608.221,0.0634428,0.0291518
3610.149,0.0631519,0.035091
3612.078,0.0628679,0.0314603
3614.006,0.062591,0.0324978
3615.935,0.0623211,0.0234136
3617.863,0.0620583,0.0221502
3619.792,0.0618024,0.0323952
3621.72,0.0615537,0.0300001
3623.649,0.0613119,0.0233371
3625.577,0.0610773,0.0198499
3627.506,0.0608495,0.0180106
3629.434,0.0606289,0.0437023
3631.363,0.0604153,0.0304023
3633.291,0.0602088,0.0164244
3635.22,0.0600092,0.0209501
3637.148,0.0598167,0.0136742
3639.077,0.0596312,0.00825893
3641.005,0.0594528,0.0106267
3642.934,0.0592814,0.0127408
3644.862,0.059117,0.00218727
3646.791,0.0589597,-0.00324224
3648.719,0.0588094,0.0166207
3650.648,0.0586661,0.038703
3652.576,0.0585299,0.0273975
3654.505,0.0584007,0.00518347
3656.433,0.0582786,0.00754587
3658.362,0.0581634,0.00702911
3660.29,0.0580553,0.000257357
3662.219,0.0579543,0.00112054
3664.147,0.0578603,-0.000604675
3666.076,0.0577733,-0.00617621
3668.004,0.0576933,-0.0106054
3669.933,0.0576204,0.00194532
3671.861,0.0575545,0.00974186
3673.79,0.0574957,-0.00852047
3675.718,0.0574439,0.011372
3677.647,0.0573991,0.0184546
3679.575,0.0573613,0.0105859
3681.504,0.0573306,0.00543721
3683.432,0.0573069,0.000499141
3685.361,0.0572903,-0.000992602
3687.289,0.0572807,-0.00980782
3689.218,0.0572781,0.00401654
3691.146,0.0572826,0.0164044
3693.075,0.0572941,0.0134078
3695.003,0.0573126,0.00385606
3696.932,0.0573382,0.0019294
3698.86,0.0573708,0.00189681