File: olivine/FTIR/SC1-2-800C-7hr-c02-copper-high-baseline.CSV
baseline wavenumber (cm-1),baseline absorbance (cm-1),baseline-subtracted absorbance (cm-1)
3399.943,0.181369,1.11022e-16
3401.871,0.180509,-0.0015219
3403.8,0.179648,-0.00786504
3405.728,0.178787,-0.0106196
3407.657,0.177926,-0.0122116
3409.585,0.177066,-0.0123062
3411.514,0.176205,-0.00791414
3413.442,0.175344,-0.00724469
3415.371,0.174483,-0.009267
3417.299,0.173623,-0.00910311
3419.228,0.172762,-0.0103949
3421.156,0.171902,-0.00916743
3423.085,0.171041,-0.0144341
3425.013,0.17018,-0.0138068
3426.942,0.169319,-0.00793192
3428.87,0.168459,-0.0037839
3430.799,0.167598,-0.00299882
3432.727,0.166737,-0.00527737
3434.656,0.165876,-0.00563037
3436.584,0.165016,-0.00369578
3438.513,0.164155,-0.00263192
3440.441,0.163294,-0.00262481
3442.37,0.162433,-0.0011642
3444.298,0.161573,-0.00340282
3446.227,0.160712,-0.00260783
3448.155,0.159852,0.00143178
3450.084,0.158991,-0.00209377
3452.012,0.15813,-0.0015161
3453.941,0.157269,-0.0040138
3455.869,0.156409,-0.0039288
3457.798,0.155548,-0.00257292
3459.726,0.154687,0.00359309
3461.655,0.153826,0.0108794
3463.583,0.152966,0.0118698
3465.512,0.152105,0.00305867
3467.44,0.151244,0.00210283
3469.369,0.150383,0.00660948
3471.297,0.149523,0.0109321
3473.226,0.148662,0.00924646
3475.154,0.147801,0.00821096
3477.083,0.146941,0.00771316
3479.011,0.14608,0.00784188
3480.94,0.145219,0.0137591
3482.868,0.144359,0.0156572
3484.797,0.143498,0.0158747
3486.725,0.142637,0.0212322
3488.654,0.141776,0.0184994
3490.582,0.140916,0.0156205
3492.511,0.140055,0.0127223
3494.439,0.139194,0.00904
3496.368,0.138333,0.0079947
3498.296,0.137473,0.0137399
3500.225,0.136612,0.00865068
3502.153,0.135751,0.00180097
3504.082,0.13489,0.0117538
3506.01,0.13403,0.0204679
3507.939,0.133169,0.0238585
3509.867,0.132309,0.029221
3511.796,0.131448,0.033679
3513.724,0.130587,0.0364988
3515.653,0.129726,0.0345326
3517.581,0.128866,0.0371145
3519.51,0.128005,0.0448082
3521.438,0.127144,0.046138
3523.367,0.126283,0.0530181
3525.295,0.125423,0.0541267
3527.224,0.124562,0.0447865
3529.152,0.123701,0.045566
3531.081,0.12284,0.0480274
3533.009,0.12198,0.0401279
3534.938,0.121119,0.0316104
3536.866,0.120259,0.0343198
3538.795,0.119398,0.0314102
3540.723,0.118537,0.0290458
3542.652,0.117676,0.0262495
3544.58,0.116816,0.0266148
3546.509,0.115955,0.0303933
3548.437,0.115094,0.0257154
3550.366,0.114233,0.0207265
3552.294,0.113373,0.0258528
3554.223,0.112512,0.0349076
3556.151,0.111651,0.0396077
3558.08,0.11079,0.0502442
3560.008,0.10993,0.0683073
3561.937,0.109069,0.0835124
3563.865,0.108209,0.0856187
3565.794,0.107348,0.0886358
3567.722,0.106487,0.109755
3569.651,0.105626,0.125086
3571.579,0.104766,0.131731
3573.508,0.103905,0.126636
3575.436,0.103044,0.105916
3577.365,0.102183,0.0750241
3579.293,0.101323,0.050044
3581.222,0.100462,0.0352636
3583.15,0.0996013,0.0245722
3585.079,0.0987404,0.0144851
3587.007,0.0978799,0.0239685
3588.936,0.097019,0.0468323
3590.864,0.0961585,0.042398
3592.793,0.0952975,0.0431923
3594.721,0.094437,0.0567001
3596.65,0.0935761,0.0776011
3598.578,0.0927156,0.0900282
3600.507,0.0918547,0.0730783
3602.435,0.0909942,0.0394492
3604.364,0.0901332,0.0182015
3606.292,0.0892727,0.00347668
3608.221,0.0884118,0.00418282
3610.149,0.0875513,0.0106916
3612.078,0.0866904,0.0076378
3614.006,0.0858299,0.00925898
3615.935,0.0849689,0.000765784
3617.863,0.0841084,0.000100097
3619.792,0.0832475,0.0109502
3621.72,0.082387,0.00916677
3623.649,0.0815261,0.00312298
3625.577,0.0806656,0.000261603
3627.506,0.0798046,-0.000944524
3629.434,0.0789441,0.0253871
3631.363,0.0780832,0.0127344
3633.291,0.0772227,-0.000589576
3635.22,0.0763618,0.00459745
3637.148,0.0755013,-0.00201036
3639.077,0.0746403,-0.0067502
3641.005,0.0737798,-0.00370028
3642.934,0.0729189,-0.000896757
3644.862,0.0720584,-0.0107541
3646.791,0.0711975,-0.01548
3648.719,0.070337,0.00509314
3650.648,0.069476,0.0278931
3652.576,0.0686155,0.0173118
3654.505,0.0677546,-0.00417044
3656.433,0.0668941,-0.00106968
3658.362,0.0660332,-0.00084065
3660.29,0.0651727,-0.00685997
3662.219,0.0643117,-0.00523693
3664.147,0.0634512,-0.00619565
3666.076,0.0625903,-0.0109933
3668.004,0.0617298,-0.0146419
3669.933,0.0608689,-0.00130316
3671.861,0.0600084,0.00728801
3673.79,0.0591474,-0.0101722
3675.718,0.0582869,0.0105289
3677.647,0.057426,0.0184276
3679.575,0.0565655,0.0113817
3681.504,0.0557046,0.00706326
3683.432,0.0548441,0.00296201
3685.361,0.0539831,0.00231456
3687.289,0.0531226,-0.00564977
3689.218,0.0522617,0.00903296
3691.146,0.0514012,0.0222858
3693.075,0.0505403,0.0201616
3695.003,0.0496798,0.0114889
3696.932,0.0488188,0.0104487
3698.86,0.0479583,0.0113092