File: olivine/FTIR/SC1-2-800C-7hr-c06-copper-high-baseline.CSV
baseline wavenumber (cm-1),baseline absorbance (cm-1),baseline-subtracted absorbance (cm-1)
3399.943,0.210604,4.16334e-16
3401.871,0.209625,0.00373847
3403.8,0.208645,0.00137793
3405.728,0.207666,0.000671032
3407.657,0.206686,-0.00114528
3409.585,0.205707,-0.00370021
3411.514,0.204727,-0.000662584
3413.442,0.203747,-0.00488045
3415.371,0.202767,-0.00568135
3417.299,0.201788,-0.00192974
3419.228,0.200808,-0.00147374
3421.156,0.199829,0.00214823
3423.085,0.198849,0.00371496
3425.013,0.19787,0.00148183
3426.942,0.19689,-0.00153457
3428.87,0.195911,0.00376702
3430.799,0.194931,0.00663331
3432.727,0.193951,0.00404584
3434.656,0.192971,0.00160292
3436.584,0.191992,0.00372302
3438.513,0.191012,0.00888078
3440.441,0.190033,0.0094185
3442.37,0.189053,0.0162146
3444.298,0.188074,0.014963
3446.227,0.187094,0.00946737
3448.155,0.186115,0.0162706
3450.084,0.185135,0.0172763
3452.012,0.184155,0.0141592
3453.941,0.183175,0.0112609
3455.869,0.182196,0.0143588
3457.798,0.181216,0.0166501
3459.726,0.180237,0.0142778
3461.655,0.179257,0.0162497
3463.583,0.178278,0.0184486
3465.512,0.177298,0.0154157
3467.44,0.176319,0.0183687
3469.369,0.175339,0.0221976
3471.297,0.174359,0.0208891
3473.226,0.173379,0.0164232
3475.154,0.1724,0.0186908
3477.083,0.17142,0.0230844
3479.011,0.170441,0.02537
3480.94,0.169461,0.0293944
3482.868,0.168482,0.0333566
3484.797,0.167502,0.032555
3486.725,0.166523,0.0355415
3488.654,0.165543,0.0393853
3490.582,0.164563,0.0385705
3492.511,0.163583,0.0288055
3494.439,0.162604,0.0249588
3496.368,0.161624,0.0243133
3498.296,0.160645,0.0281229
3500.225,0.159665,0.020828
3502.153,0.158686,0.0127468
3504.082,0.157706,0.0179161
3506.01,0.156727,0.0263824
3507.939,0.155747,0.0291388
3509.867,0.154767,0.0302526
3511.796,0.153788,0.0368837
3513.724,0.152808,0.0412797
3515.653,0.151828,0.0424514
3517.581,0.150849,0.0491119
3519.51,0.149869,0.0562176
3521.438,0.14889,0.0614447
3523.367,0.14791,0.0683758
3525.295,0.146931,0.0641587
3527.224,0.145951,0.0564161
3529.152,0.144971,0.056299
3531.081,0.143992,0.0528971
3533.009,0.143012,0.0470569
3534.938,0.142032,0.0467663
3536.866,0.141053,0.0494625
3538.795,0.140073,0.0466894
3540.723,0.139094,0.041585
3542.652,0.138114,0.0364599
3544.58,0.137135,0.0371372
3546.509,0.136155,0.0324054
3548.437,0.135175,0.0255966
3550.366,0.134196,0.0246098
3552.294,0.133216,0.036787
3554.223,0.132236,0.0475927
3556.151,0.131257,0.0525692
3558.08,0.130277,0.0607464
3560.008,0.129298,0.0771464
3561.937,0.128318,0.0913777
3563.865,0.127339,0.0975592
3565.794,0.126359,0.101891
3567.722,0.125379,0.126893
3569.651,0.1244,0.139625
3571.579,0.12342,0.146253
3573.508,0.12244,0.142688
3575.436,0.121461,0.117611
3577.365,0.120481,0.0830439
3579.293,0.119502,0.0541851
3581.222,0.118522,0.0390009
3583.15,0.117543,0.0302041
3585.079,0.116563,0.0153844
3587.007,0.115583,0.0141008
3588.936,0.114604,0.0315996
3590.864,0.113624,0.0328543
3592.793,0.112644,0.0371342
3594.721,0.111665,0.0547765
3596.65,0.110685,0.0769729
3598.578,0.109706,0.0839536
3600.507,0.108726,0.0710339
3602.435,0.107747,0.0406152
3604.364,0.106767,0.0146827
3606.292,0.105787,0.000855438
3608.221,0.104808,-8.81898e-05
3610.149,0.103828,-0.00067288
3612.078,0.102848,-0.00921552
3614.006,0.101869,-0.00279333
3615.935,0.100889,-0.00591148
3617.863,0.0999098,-0.00688109
3619.792,0.0989299,0.000672758
3621.72,0.0979506,0.00226658
3623.649,0.0969707,-0.00520434
3625.577,0.0959914,-0.0128405
3627.506,0.0950115,-0.0263612
3629.434,0.0940322,-0.00366689
3631.363,0.0930523,0.00341263
3633.291,0.092073,-0.00212051
3635.22,0.0910931,0.0027617
3637.148,0.0901138,0.000970855
3639.077,0.0891339,-0.000963372
3641.005,0.0881546,-0.00626023
3642.934,0.0871747,-0.00738146
3644.862,0.0861954,-0.0139133
3646.791,0.0852155,-0.0233123
3648.719,0.0842362,-0.0151169
3650.648,0.0832564,0.0130073
3652.576,0.082277,0.00922062
3654.505,0.0812972,-0.0157157
3656.433,0.0803178,-0.00971683
3658.362,0.079338,-0.00125886
3660.29,0.0783586,-0.00473382
3662.219,0.0773788,-0.00245421
3664.147,0.0763994,-0.00287712
3666.076,0.0754196,-0.00929841
3668.004,0.0744402,-0.0134192
3669.933,0.0734604,0.00663431
3671.861,0.072481,0.0124271
3673.79,0.0715012,-0.0154671
3675.718,0.0705218,0.00356704
3677.647,0.069542,0.0143547
3679.575,0.0685626,0.00523234
3681.504,0.0675828,0.00439333
3683.432,0.0666034,0.00168785
3685.361,0.0656236,-0.000902953
3687.289,0.0646442,-0.00468657
3689.218,0.0636644,0.00989169
3691.146,0.062685,0.0122042
3693.075,0.0617052,0.00989238
3695.003,0.0607258,0.00283139
3696.932,0.059746,0.0070965
3698.86,0.0587666,0.00807584