File: olivine/FTIR/SC1-2-800C-7hr-c08-copper-low-baseline.CSV
baseline wavenumber (cm-1),baseline absorbance (cm-1),baseline-subtracted absorbance (cm-1)
3199.379,0.33428,1.36557e-14
3201.308,0.331959,0.00136595
3203.236,0.329649,0.00459237
3205.165,0.327348,0.00868702
3207.093,0.325057,0.0108652
3209.021,0.322777,0.00976011
3210.95,0.320505,0.00983704
3212.878,0.318244,0.0142555
3214.807,0.315992,0.0173128
3216.736,0.313749,0.0155726
3218.664,0.311518,0.017997
3220.593,0.309295,0.0193888
3222.521,0.307083,0.0168749
3224.449,0.304882,0.0166396
3226.378,0.302689,0.0154718
3228.306,0.300506,0.0130087
3230.235,0.298333,0.0150684
3232.164,0.296169,0.0174538
3234.092,0.294017,0.0224468
3236.021,0.291873,0.0279481
3237.949,0.28974,0.025411
3239.877,0.287617,0.0215278
3241.806,0.285503,0.0224337
3243.734,0.283399,0.0243985
3245.663,0.281305,0.0247889
3247.592,0.27922,0.0241399
3249.52,0.277146,0.0214604
3251.448,0.275082,0.0235319
3253.377,0.273027,0.0236605
3255.305,0.270983,0.0216297
3257.234,0.268947,0.0246583
3259.162,0.266923,0.0244995
3261.091,0.264907,0.0226399
3263.02,0.262901,0.0245467
3264.948,0.260906,0.0285114
3266.876,0.258921,0.0282283
3268.805,0.256944,0.0256752
3270.733,0.254979,0.0227676
3272.662,0.253022,0.0249871
3274.591,0.251075,0.0294034
3276.519,0.249139,0.0310346
3278.448,0.247212,0.0298777
3280.376,0.245296,0.0271215
3282.304,0.243389,0.0295056
3284.233,0.241492,0.0328052
3286.161,0.239605,0.032311
3288.09,0.237727,0.0333933
3290.019,0.235859,0.0334616
3291.947,0.234002,0.0351283
3293.875,0.232155,0.0389892
3295.804,0.230316,0.0360314
3297.732,0.228488,0.0324906
3299.661,0.22667,0.0334679
3301.589,0.224862,0.0361169
3303.518,0.223063,0.0394226
3305.447,0.221273,0.0376992
3307.375,0.219495,0.0345277
3309.303,0.217726,0.0388077
3311.232,0.215967,0.043807
3313.16,0.214218,0.0426195
3315.089,0.212478,0.0383047
3317.017,0.210748,0.0385743
3318.946,0.209028,0.0407838
3320.875,0.207318,0.041353
3322.803,0.205618,0.0411018
3324.731,0.203928,0.0389531
3326.66,0.202247,0.0384344
3328.588,0.200577,0.0397882
3330.517,0.198916,0.0450908
3332.445,0.197266,0.0461833
3334.374,0.195624,0.0446235
3336.302,0.193993,0.0465449
3338.231,0.192372,0.0437246
3340.159,0.190761,0.042417
3342.088,0.189158,0.0458607
3344.016,0.187567,0.0467289
3345.945,0.185985,0.0478543
3347.873,0.184413,0.0471183
3349.802,0.18285,0.0469166
3351.73,0.181298,0.0459679
3353.659,0.179755,0.0455508
3355.587,0.178223,0.050149
3357.516,0.1767,0.0536559
3359.444,0.175187,0.0536746
3361.373,0.173684,0.0542659
3363.302,0.17219,0.0571894
3365.23,0.170707,0.0562338
3367.158,0.169234,0.0527409
3369.087,0.16777,0.0526363
3371.015,0.166316,0.0519646
3372.944,0.164872,0.0509983
3374.872,0.163438,0.0497651
3376.801,0.162013,0.0491126
3378.729,0.160599,0.0529153
3380.658,0.159194,0.0558437
3382.586,0.157799,0.0552837
3384.515,0.156414,0.0530882
3386.443,0.155039,0.0560455
3388.372,0.153674,0.0588722
3390.3,0.152318,0.0571408
3392.229,0.150972,0.0550757
3394.157,0.149637,0.0551911
3396.086,0.148311,0.056395
3398.014,0.146995,0.0598445
3399.943,0.145689,0.0667844
3401.871,0.144393,0.0692752
3403.8,0.143106,0.0651026
3405.728,0.141829,0.0649334
3407.657,0.140562,0.0661364
3409.585,0.139306,0.0654891
3411.514,0.138058,0.0679025
3413.442,0.136821,0.0658078
3415.371,0.135594,0.066886
3417.299,0.134376,0.0688608
3419.228,0.133168,0.0686466
3421.156,0.131971,0.0690017
3423.085,0.130782,0.0716526
3425.013,0.129605,0.073438
3426.942,0.128436,0.0732425
3428.87,0.127278,0.0755945
3430.799,0.126129,0.0760095
3432.727,0.12499,0.0752816
3434.656,0.123861,0.0758452
3436.584,0.122742,0.0827681
3438.513,0.121633,0.0879315
3440.441,0.120534,0.0855216
3442.37,0.119444,0.0867499
3444.298,0.118364,0.085045
3446.227,0.117294,0.0823165
3448.155,0.116235,0.0899576
3450.084,0.115184,0.0931742
3452.012,0.114144,0.091159
3453.941,0.113114,0.0884987
3455.869,0.112093,0.0911414
3457.798,0.111082,0.0903982
3459.726,0.110082,0.0909217
3461.655,0.10909,0.0964688
3463.583,0.108109,0.098457
3465.512,0.107138,0.0937225
3467.44,0.106176,0.0947824
3469.369,0.105224,0.0994733
3471.297,0.104283,0.101242
3473.226,0.103351,0.101814
3475.154,0.102429,0.101172
3477.083,0.101516,0.0983603
3479.011,0.100614,0.100619
3480.94,0.0997214,0.10777
3482.868,0.0988389,0.110265
3484.797,0.0979658,0.105224
3486.725,0.097103,0.105166
3488.654,0.0962496,0.106879
3490.582,0.0954065,0.105502
3492.511,0.0945728,0.103435
3494.439,0.0937493,0.101942
3496.368,0.0929353,0.100303
3498.296,0.0921316,0.101933
3500.225,0.0913373,0.096547
3502.153,0.0905533,0.0917271
3504.082,0.0897787,0.0961255
3506.01,0.0890143,0.100175
3507.939,0.0882595,0.0978297
3509.867,0.0875148,0.102635
3511.796,0.0867796,0.111067
3513.724,0.0860547,0.111165
3515.653,0.0853392,0.110445
3517.581,0.0846339,0.117351
3519.51,0.0839381,0.123532
3521.438,0.0832525,0.127318
3523.367,0.0825765,0.133179
3525.295,0.0819106,0.133725
3527.224,0.0812542,0.127589
3529.152,0.080608,0.125462
3531.081,0.0799713,0.121691
3533.009,0.0793448,0.11425
3534.938,0.0787278,0.106641
3536.866,0.078121,0.105237
3538.795,0.0775237,0.104192
3540.723,0.0769366,0.103154
3542.652,0.076359,0.101389
3544.58,0.0757916,0.098754
3546.509,0.0752337,0.0947577
3548.437,0.074686,0.0892062
3550.366,0.0741478,0.0844082
3552.294,0.0736198,0.0896831
3554.223,0.0731013,0.100006
3556.151,0.0725929,0.106696
3558.08,0.0720942,0.114572
3560.008,0.0716055,0.128941
3561.937,0.0711264,0.147919
3563.865,0.0706575,0.156397
3565.794,0.0701981,0.157234
3567.722,0.0697488,0.178964
3569.651,0.0693092,0.197414
3571.579,0.0688796,0.205115
3573.508,0.0684596,0.198755
3575.436,0.0680497,0.171991
3577.365,0.0676494,0.135306
3579.293,0.0672592,0.10578
3581.222,0.0668787,0.0884089
3583.15,0.0665082,0.0800581
3585.079,0.0661473,0.0689659
3587.007,0.0657965,0.0657026
3588.936,0.0654553,0.0837244
3590.864,0.0651242,0.0872174
3592.793,0.0648027,0.0908356
3594.721,0.0644913,0.111079
3596.65,0.0641895,0.134135
3598.578,0.0638978,0.13542
3600.507,0.0636157,0.114735
3602.435,0.0633437,0.0820359
3604.364,0.0630813,0.0586512
3606.292,0.062829,0.0474086
3608.221,0.0625863,0.0457256
3610.149,0.0623536,0.0395088
3612.078,0.0621307,0.0310796
3614.006,0.0619177,0.0378033
3615.935,0.0617145,0.0329408
3617.863,0.0615212,0.0288791
3619.792,0.0613376,0.0364987
3621.72,0.061164,0.0371226
3623.649,0.0610002,0.0314242
3625.577,0.0608463,0.0281252
3627.506,0.0607021,0.0184569
3629.434,0.0605679,0.0338994
3631.363,0.0604435,0.0345156
3633.291,0.060329,0.0234065
3635.22,0.0602242,0.0269329
3637.148,0.0601294,0.0259567
3639.077,0.0600444,0.0230983
3641.005,0.0599692,0.0203436
3642.934,0.0599039,0.0193294
3644.862,0.0598484,0.0119756
3646.791,0.0598028,0.00158759
3648.719,0.059767,0.00718789
3650.648,0.0597411,0.0305141
3652.576,0.059725,0.0254756
3654.505,0.0597188,0.0044311
3656.433,0.0597224,0.0128071
3658.362,0.0597359,0.0181303
3660.29,0.0597592,0.0125449
3662.219,0.0597924,0.0142372
3664.147,0.0598354,0.0113205
3666.076,0.0598883,0.000784939
3668.004,0.059951,-0.00631101
3669.933,0.0600235,0.0103424
3671.861,0.0601059,0.021892
3673.79,0.0601982,0.0031203
3675.718,0.0603003,0.0186722
3677.647,0.0604123,0.0175292
3679.575,0.060534,0.00807458
3681.504,0.0606657,0.0080556
3683.432,0.0608072,0.00489433
3685.361,0.0609586,0.000871011
3687.289,0.0611197,-0.00942205
3689.218,0.0612908,0.00293087
3691.146,0.0614716,0.0127551
3693.075,0.0616624,0.00921798
3695.003,0.061863,0.000977926
3696.932,0.0620735,0.00161854
3698.86,0.0622937,0.00139832