File: olivine/FTIR/SC1-2-800C-7hr-c08-copper-baseline.CSV
baseline wavenumber (cm-1),baseline absorbance (cm-1),baseline-subtracted absorbance (cm-1)
3199.379,0.33428,2.25375e-14
3201.308,0.332324,0.00100147
3203.236,0.330375,0.00386641
3205.165,0.328432,0.00760221
3207.093,0.326498,0.00942459
3209.021,0.32457,0.00796641
3210.95,0.322649,0.00769293
3212.878,0.320735,0.011764
3214.807,0.318828,0.0144765
3216.736,0.316927,0.0123943
3218.664,0.315035,0.0144798
3220.593,0.313149,0.0155352
3222.521,0.31127,0.012688
3224.449,0.309399,0.0121222
3226.378,0.307534,0.0106264
3228.306,0.305677,0.00783843
3230.235,0.303826,0.00957586
3232.164,0.301981,0.0116418
3234.092,0.300145,0.0163184
3236.021,0.298315,0.0215058
3237.949,0.296493,0.0186579
3239.877,0.294678,0.0144667
3241.806,0.292869,0.0150672
3243.734,0.291068,0.0167296
3245.663,0.289273,0.0168202
3247.592,0.287486,0.0158743
3249.52,0.285706,0.0129008
3251.448,0.283933,0.0146812
3253.377,0.282166,0.0145213
3255.305,0.280407,0.012205
3257.234,0.278655,0.0149507
3259.162,0.27691,0.0145121
3261.091,0.275172,0.0123752
3263.02,0.27344,0.0140076
3264.948,0.271716,0.0177008
3266.876,0.27,0.0171491
3268.805,0.268289,0.01433
3270.733,0.266587,0.0111594
3272.662,0.264891,0.0131186
3274.591,0.263201,0.0172773
3276.519,0.26152,0.0186539
3278.448,0.259845,0.0172452
3280.376,0.258177,0.01424
3282.304,0.256517,0.0163779
3284.233,0.254863,0.0194341
3286.161,0.253217,0.0186993
3288.09,0.251577,0.0195439
3290.019,0.249944,0.0193771
3291.947,0.248318,0.0208117
3293.875,0.2467,0.0244434
3295.804,0.245088,0.021259
3297.732,0.243484,0.0174946
3299.661,0.241887,0.0182509
3301.589,0.240297,0.0206819
3303.518,0.238713,0.0237723
3305.447,0.237136,0.0218364
3307.375,0.235567,0.0184553
3309.303,0.234005,0.0225285
3311.232,0.23245,0.0273238
3313.16,0.230902,0.0259352
3315.089,0.22936,0.0214219
3317.017,0.227827,0.021496
3318.946,0.226299,0.0235128
3320.875,0.224779,0.023892
3322.803,0.223266,0.0234537
3324.731,0.221761,0.0211207
3326.66,0.220261,0.0204205
3328.588,0.21877,0.0215957
3330.517,0.217284,0.0267224
3332.445,0.215807,0.0276419
3334.374,0.214336,0.0259118
3336.302,0.212872,0.0276658
3338.231,0.211415,0.0246809
3340.159,0.209966,0.0232115
3342.088,0.208523,0.0264962
3344.016,0.207088,0.0272082
3345.945,0.205659,0.0281803
3347.873,0.204238,0.0272938
3349.802,0.202823,0.0269443
3351.73,0.201416,0.0258507
3353.659,0.200015,0.0252916
3355.587,0.198622,0.0297504
3357.516,0.197235,0.0331209
3359.444,0.195856,0.0330059
3361.373,0.194483,0.0334663
3363.302,0.193118,0.0362618
3365.23,0.19176,0.0351811
3367.158,0.190409,0.0315658
3369.087,0.189064,0.0313415
3371.015,0.187727,0.0305531
3372.944,0.186397,0.0294728
3374.872,0.185074,0.0281285
3376.801,0.183758,0.0273676
3378.729,0.182449,0.0310649
3380.658,0.181147,0.0338905
3382.586,0.179852,0.0332307
3384.515,0.178564,0.0309381
3386.443,0.177284,0.0338011
3388.372,0.176009,0.0365364
3390.3,0.174743,0.0347163
3392.229,0.173483,0.0325654
3394.157,0.17223,0.0325978
3396.086,0.170984,0.0337215
3398.014,0.169746,0.0370937
3399.943,0.168514,0.0439589
3401.871,0.16729,0.046378
3403.8,0.166072,0.0421364
3405.728,0.164862,0.0419012
3407.657,0.163658,0.0430408
3409.585,0.162462,0.0423331
3411.514,0.161272,0.0446888
3413.442,0.16009,0.0425392
3415.371,0.158914,0.0435653
3417.299,0.157746,0.0454909
3419.228,0.156585,0.0452303
3421.156,0.155431,0.0455417
3423.085,0.154283,0.0481519
3425.013,0.153143,0.0498993
3426.942,0.15201,0.0496686
3428.87,0.150884,0.0519882
3430.799,0.149765,0.0523737
3432.727,0.148653,0.051619
3434.656,0.147548,0.0521587
3436.584,0.14645,0.0590605
3438.513,0.145359,0.0642056
3440.441,0.144275,0.0617802
3442.37,0.143198,0.0629959
3444.298,0.142128,0.0612811
3446.227,0.141065,0.0585456
3448.155,0.14001,0.0661825
3450.084,0.138961,0.0693977
3452.012,0.137919,0.0673839
3453.941,0.136884,0.0647278
3455.869,0.135857,0.0673776
3457.798,0.134836,0.0666442
3459.726,0.133823,0.0671804
3461.655,0.132816,0.0727429
3463.583,0.131817,0.0747494
3465.512,0.130824,0.0700361
3467.44,0.129839,0.0711198
3469.369,0.12886,0.0758374
3471.297,0.127889,0.0776354
3473.226,0.126925,0.0782396
3475.154,0.125968,0.0776334
3477.083,0.125017,0.0748596
3479.011,0.124074,0.0771585
3480.94,0.123138,0.0843539
3482.868,0.122209,0.0868951
3484.797,0.121286,0.0819032
3486.725,0.120372,0.0818972
3488.654,0.119463,0.0836651
3490.582,0.118563,0.0823457
3492.511,0.117668,0.0803398
3494.439,0.116782,0.0789098
3496.368,0.115901,0.0773372
3498.296,0.115029,0.0790356
3500.225,0.114163,0.0737216
3502.153,0.113304,0.0689762
3504.082,0.112452,0.073452
3506.01,0.111608,0.0775816
3507.939,0.11077,0.0753194
3509.867,0.109939,0.0802103
3511.796,0.109115,0.088731
3513.724,0.108299,0.0889207
3515.653,0.107489,0.0882946
3517.581,0.106687,0.0952977
3519.51,0.105891,0.101579
3521.438,0.105103,0.105468
3523.367,0.104321,0.111434
3525.295,0.103547,0.112088
3527.224,0.10278,0.106063
3529.152,0.10202,0.104051
3531.081,0.101266,0.100396
3533.009,0.10052,0.093075
3534.938,0.0997806,0.0855878
3536.866,0.0990486,0.0843093
3538.795,0.0983233,0.0833926
3540.723,0.0976053,0.0824856
3542.652,0.0968941,0.0808538
3544.58,0.0961902,0.0783554
3546.509,0.095493,0.0744984
3548.437,0.0948032,0.0690889
3550.366,0.0941201,0.0644359
3552.294,0.0934444,0.0698585
3554.223,0.0927753,0.0803324
3556.151,0.0921137,0.0871752
3558.08,0.0914587,0.0952071
3560.008,0.0908111,0.109736
3561.937,0.0901702,0.128875
3563.865,0.0895366,0.137518
3565.794,0.0889098,0.138522
3567.722,0.0882903,0.160422
3569.651,0.0876776,0.179045
3571.579,0.0870722,0.186922
3573.508,0.0864735,0.180741
3575.436,0.0858822,0.154158
3577.365,0.0852975,0.117658
3579.293,0.0847203,0.0883188
3581.222,0.0841497,0.0711379
3583.15,0.0835865,0.0629797
3585.079,0.08303,0.0520832
3587.007,0.0824809,0.0490181
3588.936,0.0819385,0.0672412
3590.864,0.0814034,0.0709381
3592.793,0.0808751,0.0747632
3594.721,0.0803541,0.095216
3596.65,0.0798398,0.118485
3598.578,0.0793329,0.119985
3600.507,0.0788327,0.0995176
3602.435,0.0783398,0.0670397
3604.364,0.0778537,0.0438788
3606.292,0.0773749,0.0328626
3608.221,0.0769029,0.0314091
3610.149,0.0764381,0.0254243
3612.078,0.0759802,0.0172302
3614.006,0.0755295,0.0241915
3615.935,0.0750856,0.0195697
3617.863,0.074649,0.0157513
3619.792,0.0742192,0.0236172
3621.72,0.0737966,0.0244901
3623.649,0.0733809,0.0190436
3625.577,0.0729724,0.0159991
3627.506,0.0725707,0.00658829
3629.434,0.0721763,0.022291
3631.363,0.0717887,0.0231704
3633.291,0.0714083,0.0123271
3635.22,0.0710348,0.0161223
3637.148,0.0706685,0.0154176
3639.077,0.0703091,0.0128336
3641.005,0.0699568,0.010356
3642.934,0.0696115,0.00962185
3644.862,0.0692733,0.00255073
3646.791,0.068942,-0.0075516
3648.719,0.0686179,-0.00166296
3650.648,0.0683006,0.0219546
3652.576,0.0679906,0.01721
3654.505,0.0676875,-0.00353755
3656.433,0.0673915,0.00513808
3658.362,0.0671024,0.0107638
3660.29,0.0668205,0.00548366
3662.219,0.0665455,0.00748414
3664.147,0.0662776,0.00487823
3666.076,0.0660167,-0.0053435
3668.004,0.0657629,-0.012123
3669.933,0.0655161,0.00484986
3671.861,0.0652763,0.0167215
3673.79,0.0650436,-0.00172504
3675.718,0.0648179,0.0141546
3677.647,0.0645992,0.0133423
3679.575,0.0643876,0.004221
3681.504,0.064183,0.00453836
3683.432,0.0639854,0.00171606
3685.361,0.0637949,-0.00196529
3687.289,0.0636114,-0.0119138
3689.218,0.0634349,0.000786759
3691.146,0.0632655,0.0109612
3693.075,0.0631031,0.00777732
3695.003,0.0629478,-0.000106883
3696.932,0.0627994,0.000892585
3698.86,0.0626582,0.00103384