File: olivine/FTIR/SC1-2-800C-7hr-c00-copper-high-baseline.CSV
baseline wavenumber (cm-1),baseline absorbance (cm-1),baseline-subtracted absorbance (cm-1)
3399.943,0.172829,2.22045e-16
3401.871,0.172068,-0.00601643
3403.8,0.171307,-0.0107957
3405.728,0.170547,-0.00606467
3407.657,0.169786,0.00295366
3409.585,0.169025,0.00189073
3411.514,0.168264,-0.00510378
3413.442,0.167504,-0.00725132
3415.371,0.166743,-0.00381219
3417.299,0.165982,-0.00557359
3419.228,0.165221,-0.0110691
3421.156,0.164461,-0.00933203
3423.085,0.1637,-0.00898852
3425.013,0.162939,-0.00949904
3426.942,0.162178,-0.00595529
3428.87,0.161417,-0.00367343
3430.799,0.160656,-0.00417799
3432.727,0.159896,0.000393868
3434.656,0.159135,0.00428534
3436.584,0.158374,0.00478968
3438.513,0.157613,0.000837221
3440.441,0.156853,-0.00177226
3442.37,0.156092,3.18802e-05
3444.298,0.155331,-0.00859296
3446.227,0.15457,-0.0150179
3448.155,0.15381,-0.00160694
3450.084,0.153049,-0.00279886
3452.012,0.152288,-0.00467499
3453.941,0.151527,0.000316757
3455.869,0.150766,0.00241414
3457.798,0.150006,0.00217239
3459.726,0.149245,-0.00259316
3461.655,0.148484,-0.00652439
3463.583,0.147723,0.000898983
3465.512,0.146962,-6.60095e-05
3467.44,0.146202,6.73606e-05
3469.369,0.145441,0.000928407
3471.297,0.14468,0.000830806
3473.226,0.143919,0.00690615
3475.154,0.143159,0.00377306
3477.083,0.142398,-0.00214897
3479.011,0.141637,0.00269581
3480.94,0.140876,0.0130742
3482.868,0.140116,0.0168834
3484.797,0.139355,0.0156617
3486.725,0.138594,0.0183216
3488.654,0.137833,0.0192352
3490.582,0.137072,0.0199614
3492.511,0.136312,0.0159422
3494.439,0.135551,0.0158446
3496.368,0.13479,0.0157287
3498.296,0.134029,0.0181005
3500.225,0.133268,0.0124125
3502.153,0.132508,0.00930772
3504.082,0.131747,0.01276
3506.01,0.130986,0.0143959
3507.939,0.130225,0.0159186
3509.867,0.129465,0.0254758
3511.796,0.128704,0.036497
3513.724,0.127943,0.0378651
3515.653,0.127182,0.0294358
3517.581,0.126422,0.0335922
3519.51,0.125661,0.0413616
3521.438,0.1249,0.045798
3523.367,0.124139,0.0531091
3525.295,0.123378,0.0533309
3527.224,0.122617,0.0529755
3529.152,0.121857,0.0459063
3531.081,0.121096,0.035195
3533.009,0.120335,0.0357044
3534.938,0.119574,0.0351518
3536.866,0.118814,0.0351214
3538.795,0.118053,0.0349595
3540.723,0.117292,0.0306418
3542.652,0.116531,0.022966
3544.58,0.115771,0.0341395
3546.509,0.11501,0.0379733
3548.437,0.114249,0.0238956
3550.366,0.113488,0.012824
3552.294,0.112728,0.0251544
3554.223,0.111967,0.0367007
3556.151,0.111206,0.0359153
3558.08,0.110445,0.0440497
3560.008,0.109684,0.0667859
3561.937,0.108923,0.0853544
3563.865,0.108163,0.0901764
3565.794,0.107402,0.0972419
3567.722,0.106641,0.114032
3569.651,0.10588,0.115546
3571.579,0.10512,0.122356
3573.508,0.104359,0.118988
3575.436,0.103598,0.0984958
3577.365,0.102837,0.0681085
3579.293,0.102077,0.0446014
3581.222,0.101316,0.0293136
3583.15,0.100555,0.023325
3585.079,0.0997941,0.0143675
3587.007,0.0990336,0.0184238
3588.936,0.0982726,0.0412848
3590.864,0.097512,0.0386202
3592.793,0.096751,0.0443792
3594.721,0.0959904,0.065489
3596.65,0.0952295,0.0866477
3598.578,0.0944689,0.0926772
3600.507,0.0937079,0.0815151
3602.435,0.0929473,0.0495545
3604.364,0.0921864,0.0174691
3606.292,0.0914258,0.00659996
3608.221,0.0906648,0.00818641
3610.149,0.0899042,0.00313071
3612.078,0.0891432,-0.000930511
3614.006,0.0883827,0.00260825
3615.935,0.0876217,-0.00247921
3617.863,0.0868611,0.00422548
3619.792,0.0861001,0.0138019
3621.72,0.0853395,0.00981289
3623.649,0.0845786,0.00502717
3625.577,0.083818,-0.000888692
3627.506,0.083057,-0.00456439
3629.434,0.0822964,0.0285457
3631.363,0.0815355,0.0159719
3633.291,0.0807749,-0.000703356
3635.22,0.0800139,0.00141408
3637.148,0.0792533,-0.0024949
3639.077,0.0784923,-0.00631514
3641.005,0.0777318,-0.00738727
3642.934,0.0769708,-0.0011076
3644.862,0.0762102,-0.00864248
3646.791,0.0754492,-0.0157616
3648.719,0.0746886,0.00174004
3650.648,0.0739277,0.0242537
3652.576,0.0731671,0.00932943
3654.505,0.0724061,-0.0165784
3656.433,0.0716455,-0.0089461
3658.362,0.0708846,-8.2977e-05
3660.29,0.070124,-0.00560876
3662.219,0.069363,-0.0101435
3664.147,0.0686024,-0.00913977
3666.076,0.0678414,-0.0110954
3668.004,0.0670809,-0.00694303
3669.933,0.0663199,0.0194082
3671.861,0.0655593,0.0231307
3673.79,0.0647983,-0.00239395
3675.718,0.0640377,0.0148466
3677.647,0.0632768,0.0150057
3679.575,0.0625162,0.00783017
3681.504,0.0617552,0.00724378
3683.432,0.0609946,0.00135269
3685.361,0.0602337,-0.00567002
3687.289,0.0594731,-0.0103497
3689.218,0.0587121,0.0126339
3691.146,0.0579515,0.0217374
3693.075,0.0571905,0.0113466
3695.003,0.05643,-0.00221516
3696.932,0.055669,-0.000961211
3698.86,0.0549084,-0.00020063