File: olivine/FTIR/SC1-2-800C-7hr-c00-copper-low-baseline.CSV
baseline wavenumber (cm-1),baseline absorbance (cm-1),baseline-subtracted absorbance (cm-1)
3199.379,0.283138,1.78746e-14
3201.308,0.281003,0.00121641
3203.236,0.27888,0.00256085
3205.165,0.276765,-0.00258481
3207.093,0.274661,-0.0023851
3209.021,0.272566,0.00482084
3210.95,0.270481,0.00799951
3212.878,0.268406,0.00676971
3214.807,0.26634,0.00459259
3216.736,0.264285,0.00412552
3218.664,0.26224,0.0068306
3220.593,0.260203,0.0107424
3222.521,0.258178,0.0074589
3224.449,0.256163,0.00723239
3226.378,0.254156,0.00507804
3228.306,0.25216,0.00616966
3230.235,0.250173,0.00652467
3232.164,0.248196,0.00934278
3234.092,0.24623,0.0175149
3236.021,0.244272,0.0209522
3237.949,0.242326,0.0137802
3239.877,0.240389,0.00521451
3241.806,0.238461,0.00581164
3243.734,0.236544,0.0153411
3245.663,0.234636,0.0191971
3247.592,0.232738,0.0146151
3249.52,0.23085,0.0131522
3251.448,0.228973,0.0153432
3253.377,0.227104,0.0121715
3255.305,0.225246,0.0131567
3257.234,0.223397,0.0206339
3259.162,0.221559,0.0192497
3261.091,0.219729,0.0135915
3263.02,0.21791,0.0132893
3264.948,0.216101,0.0168093
3266.876,0.214302,0.0183393
3268.805,0.212512,0.0179914
3270.733,0.210733,0.0151097
3272.662,0.208963,0.0170887
3274.591,0.207202,0.0210946
3276.519,0.205453,0.0191891
3278.448,0.203712,0.019169
3280.376,0.201982,0.0256356
3282.304,0.200262,0.0239002
3284.233,0.198551,0.0196173
3286.161,0.19685,0.0185991
3288.09,0.195159,0.0226877
3290.019,0.193477,0.0235818
3291.947,0.191806,0.0214435
3293.875,0.190145,0.0265676
3295.804,0.188493,0.0276788
3297.732,0.186852,0.0212816
3299.661,0.18522,0.0202914
3301.589,0.183598,0.0257491
3303.518,0.181985,0.0329819
3305.447,0.180383,0.0341536
3307.375,0.17879,0.0293689
3309.303,0.177208,0.0272127
3311.232,0.175635,0.0313529
3313.16,0.174072,0.0334148
3315.089,0.172519,0.0262991
3317.017,0.170976,0.0240196
3318.946,0.169442,0.0252487
3320.875,0.167918,0.0280453
3322.803,0.166405,0.0283653
3324.731,0.164901,0.0265564
3326.66,0.163407,0.0278628
3328.588,0.161923,0.0293295
3330.517,0.160448,0.0322269
3332.445,0.158984,0.0348979
3334.374,0.157529,0.0373203
3336.302,0.156085,0.0368558
3338.231,0.154649,0.0327878
3340.159,0.153225,0.0321661
3342.088,0.151809,0.0349994
3344.016,0.150404,0.0374329
3345.945,0.149008,0.0386484
3347.873,0.147623,0.0379662
3349.802,0.146247,0.0410921
3351.73,0.144881,0.0407237
3353.659,0.143524,0.0381138
3355.587,0.142178,0.0450839
3357.516,0.140842,0.04915
3359.444,0.139515,0.0459185
3361.373,0.138198,0.0443654
3363.302,0.136891,0.0448291
3365.23,0.135594,0.0443392
3367.158,0.134307,0.0432487
3369.087,0.13303,0.0422541
3371.015,0.131762,0.0433414
3372.944,0.130504,0.0442249
3374.872,0.129257,0.0457559
3376.801,0.128019,0.046455
3378.729,0.126791,0.0506819
3380.658,0.125572,0.0513597
3382.586,0.124364,0.0440487
3384.515,0.123165,0.0359076
3386.443,0.121977,0.0453322
3388.372,0.120797,0.0551453
3390.3,0.119629,0.0506792
3392.229,0.118469,0.0421592
3394.157,0.11732,0.0397239
3396.086,0.11618,0.0484716
3398.014,0.115051,0.0570552
3399.943,0.113931,0.058898
3401.871,0.112821,0.0532307
3403.8,0.111721,0.0487908
3405.728,0.110631,0.0538513
3407.657,0.10955,0.0631893
3409.585,0.10848,0.0624361
3411.514,0.107419,0.0557416
3413.442,0.106368,0.0538841
3415.371,0.105327,0.0576036
3417.299,0.104296,0.0561125
3419.228,0.103274,0.0508776
3421.156,0.102263,0.0528653
3423.085,0.101261,0.0534497
3425.013,0.10027,0.0531701
3426.942,0.0992876,0.0569351
3428.87,0.0983157,0.0594282
3430.799,0.0973533,0.0591252
3432.727,0.0964011,0.0638886
3434.656,0.0954583,0.0679619
3436.584,0.0945259,0.0686381
3438.513,0.0936028,0.0648477
3440.441,0.09269,0.0623904
3442.37,0.0917867,0.064337
3444.298,0.0908936,0.0558446
3446.227,0.0900099,0.0495424
3448.155,0.0891365,0.0630661
3450.084,0.0882725,0.0619772
3452.012,0.0874189,0.0601942
3453.941,0.0865746,0.0652692
3455.869,0.0857406,0.06744
3457.798,0.084916,0.0672619
3459.726,0.0841017,0.0625501
3461.655,0.0832968,0.0586627
3463.583,0.0825022,0.0661201
3465.512,0.0817171,0.0651793
3467.44,0.0809421,0.065327
3469.369,0.0801767,0.0661926
3471.297,0.0794214,0.0660896
3473.226,0.0786757,0.0721498
3475.154,0.0779401,0.0689916
3477.083,0.0772141,0.0630347
3479.011,0.0764982,0.0678347
3480.94,0.0757919,0.0781585
3482.868,0.0750957,0.0819033
3484.797,0.074409,0.0806072
3486.725,0.0737326,0.083183
3488.654,0.0730656,0.0840026
3490.582,0.0724088,0.084625
3492.511,0.0717616,0.0804921
3494.439,0.0711245,0.080271
3496.368,0.070497,0.0800217
3498.296,0.0698796,0.0822503
3500.225,0.0692717,0.0764092
3502.153,0.068674,0.0731415
3504.082,0.0680859,0.076421
3506.01,0.0675078,0.0778743
3507.939,0.0669394,0.0792044
3509.867,0.0663811,0.0885594
3511.796,0.0658323,0.0993684
3513.724,0.0652937,0.100515
3515.653,0.0647647,0.0918533
3517.581,0.0642457,0.095768
3519.51,0.0637364,0.103286
3521.438,0.0632371,0.107461
3523.367,0.0627475,0.114501
3525.295,0.0622679,0.114441
3527.224,0.061798,0.113795
3529.152,0.0613381,0.106425
3531.081,0.0608879,0.095403
3533.009,0.0604477,0.095592
3534.938,0.0600172,0.094709
3536.866,0.0595967,0.0943385
3538.795,0.0591859,0.0938265
3540.723,0.0587851,0.0891489
3542.652,0.058394,0.0811033
3544.58,0.0580129,0.0918973
3546.509,0.0576414,0.0953416
3548.437,0.05728,0.0808647
3550.366,0.0569283,0.0693839
3552.294,0.0565866,0.0812954
3554.223,0.0562545,0.0924128
3556.151,0.0559325,0.0911888
3558.08,0.0556202,0.0988745
3560.008,0.0553179,0.121152
3561.937,0.0550252,0.139253
3563.865,0.0547426,0.143597
3565.794,0.0544697,0.150174
3567.722,0.0542067,0.166467
3569.651,0.0539535,0.167473
3571.579,0.0537103,0.173766
3573.508,0.0534767,0.16987
3575.436,0.0532532,0.148841
3577.365,0.0530393,0.117906
3579.293,0.0528355,0.0938426
3581.222,0.0526414,0.077988
3583.15,0.0524572,0.0714229
3585.079,0.0522828,0.0618789
3587.007,0.0521183,0.0653391
3588.936,0.0519636,0.0875938
3590.864,0.0518188,0.0843135
3592.793,0.0516837,0.0894464
3594.721,0.0515586,0.109921
3596.65,0.0514433,0.130434
3598.578,0.0513379,0.135808
3600.507,0.0512423,0.123981
3602.435,0.0511566,0.0913453
3604.364,0.0510807,0.0585748
3606.292,0.0510146,0.0470111
3608.221,0.0509584,0.0478928
3610.149,0.0509121,0.0421228
3612.078,0.0508756,0.0373371
3614.006,0.0508489,0.040142
3615.935,0.0508321,0.0343103
3617.863,0.0508252,0.0402614
3619.792,0.0508281,0.049074
3621.72,0.0508408,0.0443116
3623.649,0.0508634,0.0387423
3625.577,0.0508958,0.0320335
3627.506,0.0509381,0.0275545
3629.434,0.0509902,0.0598519
3631.363,0.0510522,0.0464551
3633.291,0.0511241,0.0289475
3635.22,0.0512058,0.0302222
3637.148,0.0512973,0.0254612
3639.077,0.0513987,0.0207785
3641.005,0.0515099,0.0188346
3642.934,0.051631,0.0242322
3644.862,0.0517618,0.0158059
3646.791,0.0519027,0.007785
3648.719,0.0520532,0.0243755
3650.648,0.0522137,0.0459677
3652.576,0.052384,0.0301125
3654.505,0.0525642,0.00326349
3656.433,0.0527542,0.00994526
3658.362,0.0529541,0.0178475
3660.29,0.0531637,0.0113515
3662.219,0.0533833,0.00583615
3664.147,0.0536127,0.00584996
3666.076,0.053852,0.00289408
3668.004,0.054101,0.00603678
3669.933,0.0543601,0.031368
3671.861,0.0546288,0.0340613
3673.79,0.0549075,0.00749688
3675.718,0.0551959,0.0236884
3677.647,0.0554943,0.0227881
3679.575,0.0558024,0.0145439
3681.504,0.0561206,0.0128784
3683.432,0.0564484,0.00589895
3685.361,0.0567862,-0.00222255
3687.289,0.0571337,-0.00801031
3689.218,0.0574912,0.0138548
3691.146,0.0578584,0.0218305
3693.075,0.0582356,0.0103015
3695.003,0.0586225,-0.00440768
3696.932,0.0590194,-0.00431164
3698.86,0.059426,-0.0047182