File: olivine/FTIR/SC1-2-800C-7hr-c04-copper-baseline.CSV
baseline wavenumber (cm-1),baseline absorbance (cm-1),baseline-subtracted absorbance (cm-1)
3199.379,0.294267,1.38778e-14
3201.308,0.292441,0.000602418
3203.236,0.290623,0.00829571
3205.165,0.288811,0.00964172
3207.093,0.287006,0.00737674
3209.021,0.285209,0.0110923
3210.95,0.283418,0.0098419
3212.878,0.281635,0.00797143
3214.807,0.279858,0.00995869
3216.736,0.278088,0.00987538
3218.664,0.276326,0.0104315
3220.593,0.27457,0.0141623
3222.521,0.272822,0.016073
3224.449,0.271081,0.0169863
3226.378,0.269346,0.0136389
3228.306,0.267619,0.00833312
3230.235,0.265899,0.00946797
3232.164,0.264185,0.0134749
3234.092,0.262479,0.0159802
3236.021,0.26078,0.0191289
3237.949,0.259088,0.0159327
3239.877,0.257403,0.01086
3241.806,0.255725,0.00882561
3243.734,0.254054,0.0115583
3245.663,0.25239,0.01247
3247.592,0.250732,0.0123976
3249.52,0.249083,0.0135212
3251.448,0.24744,0.016498
3253.377,0.245804,0.0161433
3255.305,0.244176,0.0131688
3257.234,0.242554,0.0151771
3259.162,0.240939,0.0156765
3261.091,0.239331,0.0142555
3263.02,0.23773,0.0124687
3264.948,0.236137,0.0135399
3266.876,0.234551,0.015664
3268.805,0.232971,0.0163946
3270.733,0.231398,0.0137621
3272.662,0.229832,0.0116924
3274.591,0.228274,0.0140441
3276.519,0.226723,0.0194373
3278.448,0.225178,0.0198559
3280.376,0.223641,0.0185432
3282.304,0.222111,0.0221594
3284.233,0.220587,0.0240682
3286.161,0.219071,0.0193976
3288.09,0.217562,0.016931
3290.019,0.216059,0.0186155
3291.947,0.214564,0.0213333
3293.875,0.213076,0.0230163
3295.804,0.211595,0.0206698
3297.732,0.210121,0.0164003
3299.661,0.208654,0.0156515
3301.589,0.207194,0.0185993
3303.518,0.205741,0.0252057
3305.447,0.204295,0.0260253
3307.375,0.202856,0.0187827
3309.303,0.201425,0.0179856
3311.232,0.199999,0.0202253
3313.16,0.198582,0.0190959
3315.089,0.197171,0.0153563
3317.017,0.195767,0.0152124
3318.946,0.19437,0.0195465
3320.875,0.19298,0.0210474
3322.803,0.191598,0.0219322
3324.731,0.190223,0.0215773
3326.66,0.188854,0.0171733
3328.588,0.187493,0.0202315
3330.517,0.186138,0.0270908
3332.445,0.184791,0.0267847
3334.374,0.18345,0.0282287
3336.302,0.182117,0.0334857
3338.231,0.18079,0.0318412
3340.159,0.179472,0.0289219
3342.088,0.178159,0.0277895
3344.016,0.176854,0.0267897
3345.945,0.175555,0.033015
3347.873,0.174265,0.0344384
3349.802,0.17298,0.0316651
3351.73,0.171703,0.0254911
3353.659,0.170433,0.0224249
3355.587,0.16917,0.0289884
3357.516,0.167914,0.0342992
3359.444,0.166665,0.0308652
3361.373,0.165423,0.0314808
3363.302,0.164188,0.0364644
3365.23,0.16296,0.0360621
3367.158,0.16174,0.0324167
3369.087,0.160526,0.030827
3371.015,0.159319,0.028706
3372.944,0.158119,0.028559
3374.872,0.156927,0.0307779
3376.801,0.155741,0.0344471
3378.729,0.154563,0.0387657
3380.658,0.153391,0.0363029
3382.586,0.152226,0.0316734
3384.515,0.151069,0.0279437
3386.443,0.149918,0.0316271
3388.372,0.148775,0.0352146
3390.3,0.147639,0.0314291
3392.229,0.146509,0.0293212
3394.157,0.145387,0.0331804
3396.086,0.144271,0.0354471
3398.014,0.143163,0.0384291
3399.943,0.142062,0.0446367
3401.871,0.140968,0.0396381
3403.8,0.13988,0.0352508
3405.728,0.1388,0.0402396
3407.657,0.137727,0.0397247
3409.585,0.136661,0.0382265
3411.514,0.135602,0.041413
3413.442,0.13455,0.0412103
3415.371,0.133505,0.039082
3417.299,0.132467,0.0380235
3419.228,0.131436,0.041363
3421.156,0.130413,0.046974
3423.085,0.129396,0.0444315
3425.013,0.128386,0.0381816
3426.942,0.127383,0.0411931
3428.87,0.126388,0.0468674
3430.799,0.125399,0.0473442
3432.727,0.124417,0.0477611
3434.656,0.123442,0.0478275
3436.584,0.122475,0.0495188
3438.513,0.121514,0.0483871
3440.441,0.120561,0.0437805
3442.37,0.119614,0.0503127
3444.298,0.118675,0.0544339
3446.227,0.117742,0.0477834
3448.155,0.116817,0.0514232
3450.084,0.115899,0.0536847
3452.012,0.114988,0.0533228
3453.941,0.114083,0.0536287
3455.869,0.113186,0.0521174
3457.798,0.112296,0.0540901
3459.726,0.111413,0.0572262
3461.655,0.110536,0.0603805
3463.583,0.109667,0.0638916
3465.512,0.108805,0.0574957
3467.44,0.10795,0.0550072
3469.369,0.107102,0.0604521
3471.297,0.106261,0.0612416
3473.226,0.105427,0.0598601
3475.154,0.1046,0.061092
3477.083,0.10378,0.0616748
3479.011,0.102968,0.065874
3480.94,0.102162,0.0678703
3482.868,0.101363,0.0717199
3484.797,0.100571,0.0677367
3486.725,0.0997868,0.068609
3488.654,0.099009,0.0737324
3490.582,0.0982385,0.0728245
3492.511,0.0974748,0.0663531
3494.439,0.0967184,0.0630159
3496.368,0.0959687,0.0701384
3498.296,0.0952264,0.0776398
3500.225,0.0944908,0.0732443
3502.153,0.0937625,0.0657252
3504.082,0.093041,0.064708
3506.01,0.0923268,0.0643797
3507.939,0.0916193,0.0603424
3509.867,0.0909192,0.0659484
3511.796,0.0902258,0.0793512
3513.724,0.0895398,0.0817971
3515.653,0.0888604,0.0809772
3517.581,0.0881885,0.0878462
3519.51,0.0875232,0.0917592
3521.438,0.0868653,0.0971293
3523.367,0.0862141,0.106408
3525.295,0.0855703,0.104381
3527.224,0.0849331,0.0976955
3529.152,0.0843034,0.0956148
3531.081,0.0836803,0.0936537
3533.009,0.0830646,0.0907342
3534.938,0.0824556,0.0844236
3536.866,0.081854,0.0803963
3538.795,0.0812591,0.0761194
3540.723,0.0806715,0.0738877
3542.652,0.0800907,0.0759452
3544.58,0.0795171,0.0791437
3546.509,0.0789504,0.0775161
3548.437,0.0783909,0.0704551
3550.366,0.0778382,0.0606612
3552.294,0.0772929,0.0616423
3554.223,0.0767542,0.0718664
3556.151,0.0762229,0.0816322
3558.08,0.0756984,0.0935514
3560.008,0.0751811,0.112037
3561.937,0.0746707,0.127915
3563.865,0.0741675,0.131316
3565.794,0.0736711,0.13222
3567.722,0.073182,0.159303
3569.651,0.0726996,0.1733
3571.579,0.0722246,0.1792
3573.508,0.0717563,0.1742
3575.436,0.0712953,0.149872
3577.365,0.0708412,0.118406
3579.293,0.0703942,0.0898403
3581.222,0.0699541,0.0704524
3583.15,0.0695213,0.0601646
3585.079,0.0690952,0.0501369
3587.007,0.0686764,0.0494571
3588.936,0.0682645,0.0654804
3590.864,0.0678598,0.065827
3592.793,0.0674619,0.0672081
3594.721,0.0670712,0.088059
3596.65,0.0666874,0.119495
3598.578,0.0663108,0.12754
3600.507,0.065941,0.108993
3602.435,0.0655785,0.071838
3604.364,0.0652228,0.0422923
3606.292,0.0648744,0.0299832
3608.221,0.0645328,0.0274738
3610.149,0.0641984,0.0282677
3612.078,0.0638708,0.0219855
3614.006,0.0635505,0.0281666
3615.935,0.063237,0.025342
3617.863,0.0629308,0.022682
3619.792,0.0626314,0.027315
3621.72,0.0623392,0.0255864
3623.649,0.0620539,0.0199021
3625.577,0.0617757,0.0134669
3627.506,0.0615045,0.000314965
3629.434,0.0612404,0.0214934
3631.363,0.0609833,0.0228749
3633.291,0.0607333,0.0138628
3635.22,0.0604902,0.0165543
3637.148,0.0602542,0.0134025
3639.077,0.0600252,0.0139009
3641.005,0.0598033,0.0147273
3642.934,0.0595884,0.0133943
3644.862,0.0593806,0.00565712
3646.791,0.0591797,-0.00792692
3648.719,0.0589859,-0.00332848
3650.648,0.0587991,0.0193519
3652.576,0.0586195,0.0153421
3654.505,0.0584467,-0.00857352
3656.433,0.0582811,-0.00256399
3658.362,0.0581224,0.00658704
3660.29,0.0579709,0.00310731
3662.219,0.0578263,0.00333962
3664.147,0.0576888,0.00187758
3666.076,0.0575583,-0.00593844
3668.004,0.0574349,-0.00785522
3669.933,0.0573185,0.0129651
3671.861,0.0572091,0.0169173
3673.79,0.0571067,-0.00797591
3675.718,0.0570114,0.0131642
3677.647,0.0569231,0.0206863
3679.575,0.0568419,0.0113227
3681.504,0.0567677,0.0115518
3683.432,0.0567005,0.00596592
3685.361,0.0566404,-0.00117925
3687.289,0.0565873,-0.00763975
3689.218,0.0565412,0.0148383
3691.146,0.0565022,0.0188696
3693.075,0.0564702,0.0056864
3695.003,0.0564452,-0.00499636
3696.932,0.0564273,-0.00503166
3698.86,0.0564164,-0.00502076