File: olivine/FTIR/SC1-2-800C-7hr-c04-copper-SiO-baseline.CSV
wavenumber (/cm),baseline value (/cm),baseline-subtracted absorbance (/cm),
1625.72,11.1936,1.06581e-14
1627.65,11.1733,-0.36737
1629.58,11.153,-0.38615
1631.51,11.1328,-0.148925
1633.44,11.1125,-0.12844
1635.37,11.0922,-0.505322
1637.3,11.072,-0.778004
1639.22,11.0517,-0.424561
1641.15,11.0314,-0.108099
1643.08,11.0112,-0.138478
1645.01,10.9909,-0.360225
1646.94,10.9706,-0.341139
1648.87,10.9504,0.255889
1650.8,10.9301,1.10098
1652.72,10.9098,0.976537
1654.65,10.8896,0.00964271
1656.58,10.8693,0.0962047
1658.51,10.849,0.267751
1660.44,10.8288,0.193654
1662.37,10.8085,0.0289835
1664.29,10.7882,0.343287
1666.22,10.768,0.71677
1668.15,10.7477,0.453296
1670.08,10.7274,-0.0818638
1672.01,10.7072,0.15068
1673.94,10.6869,0.561952
1675.87,10.6666,0.727075
1677.79,10.6463,0.298338
1679.72,10.6261,0.00297358
1681.65,10.6058,-0.0514476
1683.58,10.5855,0.173869
1685.51,10.5653,0.536278
1687.44,10.545,0.938204
1689.37,10.5247,0.853732
1691.29,10.5045,0.471144
1693.22,10.4842,0.101373
1695.15,10.4639,-0.234389
1697.08,10.4437,0.0645513
1699.01,10.4234,0.78349
1700.94,10.4031,1.27969
1702.86,10.3829,0.665914
1704.79,10.3626,0.338506
1706.72,10.3423,0.145072
1708.65,10.3221,0.354095
1710.58,10.3018,0.420122
1712.51,10.2815,0.421286
1714.43,10.2613,0.754194
1716.36,10.241,0.827878
1718.29,10.2207,0.460013
1720.22,10.2005,0.710307
1722.15,10.1802,1.03246
1724.08,10.1599,1.19316
1726.01,10.1397,1.27529
1727.93,10.1194,0.993774
1729.86,10.0991,0.385875
1731.79,10.0788,0.253349
1733.72,10.0586,0.5179
1735.65,10.0383,0.948964
1737.58,10.018,1.06287
1739.51,9.99777,0.78725
1741.43,9.97751,1.09178
1743.36,9.95724,1.31642
1745.29,9.93698,1.06995
1747.22,9.9167,0.864683
1749.15,9.89644,0.93171
1751.08,9.87617,1.03333
1753.01,9.85591,1.63168
1754.93,9.83563,1.92572
1756.86,9.81537,1.78674
1758.79,9.7951,1.58882
1760.72,9.77483,1.68585
1762.65,9.75456,1.89068
1764.58,9.7343,1.67229
1766.51,9.71403,1.70381
1768.43,9.69376,2.05146
1770.36,9.67349,2.00545
1772.29,9.65323,1.62366
1774.22,9.63295,1.57738
1776.15,9.61269,1.79036
1778.08,9.59242,2.11037
1780,9.57216,2.02921
1781.93,9.55188,1.81268
1783.86,9.53162,1.95465
1785.79,9.51135,1.94625
1787.72,9.49108,1.93317
1789.65,9.47081,2.07855
1791.58,9.45055,2.06478
1793.5,9.43028,1.75301
1795.43,9.41001,1.62019
1797.36,9.38974,1.90423
1799.29,9.36948,2.16023
1801.22,9.3492,1.84446
1803.15,9.32894,1.83857
1805.08,9.30867,1.84869
1807,9.28841,1.87653
1808.93,9.26813,2.04636
1810.86,9.24787,2.06092
1812.79,9.2276,1.98453
1814.72,9.20734,1.99648
1816.65,9.18706,2.13224
1818.57,9.1668,2.19606
1820.5,9.14653,2.07608
1822.43,9.12626,2.23211
1824.36,9.10599,2.21696
1826.29,9.08573,2.18703
1828.22,9.06546,2.14244
1830.14,9.04519,2.49868
1832.07,9.02492,2.64448
1834,9.00466,2.57313
1835.93,8.98438,2.82039
1837.86,8.96412,2.78979
1839.79,8.94385,2.38957
1841.72,8.92359,2.26646
1843.64,8.90331,2.34111
1845.57,8.88305,2.33386
1847.5,8.86278,2.42147
1849.43,8.84251,2.54175
1851.36,8.82224,2.64005
1853.29,8.80198,2.71326
1855.22,8.78171,2.65737
1857.14,8.76144,2.64123
1859.07,8.74117,2.67059
1861,8.72091,2.87312
1862.93,8.70063,2.62619
1864.86,8.68037,2.54374
1866.79,8.66011,2.56071
1868.71,8.63984,2.40551
1870.64,8.61956,2.6322
1872.57,8.5993,2.9657
1874.5,8.57904,3.33226
1876.43,8.55876,3.12332
1878.36,8.53849,2.794
1880.29,8.51823,2.91066
1882.21,8.49796,2.87993
1884.14,8.47769,2.73777
1886.07,8.45742,2.80574
1888,8.43716,2.59731
1889.93,8.41688,2.63407
1891.86,8.39662,2.83413
1893.79,8.37635,2.7619
1895.71,8.35609,2.72358
1897.64,8.33581,2.91136
1899.57,8.31555,3.26
1901.5,8.29528,3.28788
1903.43,8.27502,2.92327
1905.36,8.25474,3.00462
1907.29,8.23448,3.27666
1909.21,8.21421,3.31602
1911.14,8.19394,3.10925
1913.07,8.17367,3.19463
1915,8.15341,3.34929
1916.93,8.13315,3.38192
1918.86,8.11287,3.31495
1920.79,8.0926,3.39155
1922.71,8.07234,3.30676
1924.64,8.05207,3.13447
1926.57,8.0318,3.10478
1928.5,8.01153,3.31943
1930.43,7.99127,3.16167
1932.36,7.971,3.15407
1934.28,7.95073,3.17101
1936.21,7.93046,3.08687
1938.14,7.91019,3.23896
1940.07,7.88993,3.54745
1942,7.86966,3.59532
1943.93,7.84939,3.36071
1945.86,7.82912,3.41069
1947.78,7.80886,3.45557
1949.71,7.78859,3.86608
1951.64,7.76831,3.97407
1953.57,7.74805,3.62291
1955.5,7.72779,3.67594
1957.43,7.70752,3.67097
1959.35,7.68725,3.79128
1961.28,7.66698,3.8786
1963.21,7.64672,3.92483
1965.14,7.62645,3.72483
1967.07,7.60618,3.71518
1969,7.58591,3.78777
1970.92,7.56565,3.79623
1972.85,7.54537,3.77509
1974.78,7.52511,3.884
1976.71,7.50484,3.91815
1978.64,7.48458,3.71661
1980.57,7.4643,3.69232
1982.5,7.44404,3.81899
1984.42,7.42377,3.75525
1986.35,7.40349,3.61613
1988.28,7.38323,3.76188
1990.21,7.36297,3.91997
1992.14,7.3427,3.91721
1994.07,7.32242,4.08527
1996,7.30216,4.13107
1997.92,7.2819,4.13084
1999.85,7.26162,4.36994
2001.78,7.24136,4.4001
2003.71,7.22109,4.32136
2005.64,7.20083,4.20293
2007.57,7.18055,4.06075
2009.49,7.16029,4.23154
2011.42,7.14002,4.35823
2013.35,7.11975,4.29253
2015.28,7.09948,4.2707
2017.21,7.07922,4.14897
2019.14,7.05895,4.28293
2021.07,7.03868,4.34846
2022.99,7.01841,4.50588
2024.92,6.99815,4.70902
2026.85,6.97787,4.55849
2028.78,6.95761,4.34174
2030.71,6.93734,4.25485
2032.64,6.91708,4.34347
2034.57,6.8968,4.35467
2036.49,6.87654,4.47357
2038.42,6.85627,4.7603
2040.35,6.83601,4.78378
2042.28,6.81573,4.59737
2044.21,6.79547,4.73746
2046.14,6.7752,4.54266
2048.07,6.75493,4.30502
2049.99,6.73466,4.37678
2051.92,6.7144,4.25762
2053.85,6.69413,4.25711
2055.78,6.67386,4.25045
2057.71,6.65359,3.78099
2059.64,6.63333,3.36828
2061.57,6.61305,3.10185
2063.49,6.59279,2.85439
2065.42,6.57252,2.63441
2067.35,6.55226,2.37771
2069.28,6.53198,2.18479
2071.21,6.51172,2.05503
2073.14,6.49145,1.9114
2075.06,6.47118,1.84908
2076.99,6.45091,1.8301
2078.92,6.43065,1.61563
2080.85,6.41038,1.3773
2082.78,6.39011,1.27746
2084.71,6.36984,1.20462
2086.64,6.34958,1.09754
2088.56,6.3293,0.982057
2090.49,6.30904,0.891241
2092.42,6.28877,0.800704
2094.35,6.26851,0.739176
2096.28,6.24823,0.701969
2098.21,6.22797,0.67532
2100.14,6.2077,0.644602
2102.06,6.18743,0.601699
2103.99,6.16716,0.586169
2105.92,6.1469,0.565731
2107.85,6.12663,0.455781
2109.78,6.10636,0.395926
2111.71,6.08609,0.392809
2113.63,6.06583,0.344806
2115.56,6.04555,0.281252
2117.49,6.02529,0.263437
2119.42,6.00502,0.281345
2121.35,5.98476,0.290933
2123.28,5.96448,0.271754
2125.2,5.94422,0.173453
2127.13,5.92395,0.131667
2129.06,5.90369,0.136065
2130.99,5.88341,0.165294
2132.92,5.86315,0.1644
2134.85,5.84288,0.123145
2136.78,5.82261,0.0912798
2138.7,5.80234,0.0693918
2140.63,5.78208,0.0641717
2142.56,5.76181,0.0725828
2144.49,5.74154,0.0626321
2146.42,5.72127,0.0355889
2148.35,5.70101,0.0115171