File: olivine/FTIR/SC1-2-800C-7hr-c06-copper-baseline-high.CSV
wavenumber (/cm),baseline value (/cm),baseline-subtracted absorbance (/cm),
3149.24,0.379125,0.00119879
3151.17,0.376694,0.00260133
3153.09,0.374275,0.00128428
3155.02,0.371865,0.000745515
3156.95,0.369463,0.00275196
3158.88,0.36707,-0.000220113
3160.81,0.364688,-0.000426321
3162.74,0.362314,0.00403281
3164.67,0.359951,0.00552755
3166.59,0.357597,0.00453388
3168.52,0.355251,0.00336851
3170.45,0.352914,0.00351635
3172.38,0.350588,0.00161643
3174.31,0.34827,0.000129462
3176.24,0.345963,-0.000317512
3178.17,0.343664,0.00357826
3180.09,0.341375,0.00777134
3182.02,0.339096,0.00532584
3183.95,0.336825,0.0066275
3185.88,0.334563,0.00870257
3187.81,0.332312,0.0076659
3189.74,0.330069,0.00605235
3191.66,0.327836,0.00518989
3193.59,0.325612,0.00895064
3195.52,0.323398,0.00729293
3197.45,0.321194,0.00680958
3199.38,0.318998,0.00624802
3201.31,0.316811,0.00853545
3203.24,0.314634,0.0119531
3205.16,0.312466,0.0144424
3207.09,0.310308,0.0175199
3209.02,0.30816,0.0194978
3210.95,0.30602,0.0209778
3212.88,0.30389,0.0233713
3214.81,0.301769,0.0255458
3216.74,0.299657,0.0238494
3218.66,0.297555,0.0233266
3220.59,0.295462,0.0264678
3222.52,0.293379,0.0255799
3224.45,0.291305,0.0242049
3226.38,0.28924,0.02094
3228.31,0.287185,0.0169935
3230.24,0.285139,0.0202415
3232.16,0.283101,0.0251899
3234.09,0.281074,0.0308499
3236.02,0.279056,0.0333366
3237.95,0.277048,0.0328516
3239.88,0.275049,0.0322085
3241.81,0.273058,0.0283884
3243.73,0.271078,0.0271483
3245.66,0.269107,0.0295391
3247.59,0.267144,0.0285394
3249.52,0.265192,0.0281368
3251.45,0.263249,0.0298222
3253.38,0.261315,0.0284236
3255.3,0.259391,0.0255578
3257.23,0.257475,0.0277186
3259.16,0.25557,0.0284915
3261.09,0.253673,0.02543
3263.02,0.251786,0.0255871
3264.95,0.249908,0.032502
3266.88,0.248041,0.036828
3268.8,0.246181,0.0321642
3270.73,0.244332,0.0279837
3272.66,0.242491,0.0309467
3274.59,0.240659,0.033724
3276.52,0.238838,0.0362271
3278.45,0.237026,0.0362333
3280.38,0.235223,0.0345014
3282.3,0.23343,0.0342221
3284.23,0.231645,0.0362497
3286.16,0.229871,0.0361299
3288.09,0.228105,0.035708
3290.02,0.226348,0.0361364
3291.95,0.224602,0.0345311
3293.88,0.222865,0.0376476
3295.8,0.221136,0.0415237
3297.73,0.219418,0.0396348
3299.66,0.217708,0.0391818
3301.59,0.216008,0.0424596
3303.52,0.214317,0.0472113
3305.45,0.212636,0.0445499
3307.38,0.210964,0.0414584
3309.3,0.209302,0.0453391
3311.23,0.207648,0.0459466
3313.16,0.206004,0.0427627
3315.09,0.204369,0.0392739
3317.02,0.202745,0.0367898
3318.95,0.201128,0.0370121
3320.88,0.199521,0.0430114
3322.8,0.197924,0.0449937
3324.73,0.196337,0.0445283
3326.66,0.194758,0.0434223
3328.59,0.193189,0.0421043
3330.52,0.191629,0.0492205
3332.45,0.190079,0.0474323
3334.37,0.188538,0.0448151
3336.3,0.187006,0.0486525
3338.23,0.185483,0.0452853
3340.16,0.183971,0.0430326
3342.09,0.182467,0.0484841
3344.02,0.180973,0.0548706
3345.95,0.179487,0.0567614
3347.87,0.178012,0.0549597
3349.8,0.176545,0.0537147
3351.73,0.175089,0.0513304
3353.66,0.173641,0.0521089
3355.59,0.172203,0.0555763
3357.52,0.170774,0.057443
3359.44,0.169355,0.0583231
3361.37,0.167944,0.0582363
3363.3,0.166543,0.0607584
3365.23,0.165152,0.0593334
3367.16,0.16377,0.0553488
3369.09,0.162397,0.05421
3371.01,0.161034,0.0555543
3372.94,0.159679,0.0566254
3374.87,0.158335,0.0587153
3376.8,0.156999,0.059213
3378.73,0.155674,0.0617302
3380.66,0.154357,0.0603732
3382.59,0.15305,0.0542014
3384.51,0.151751,0.0510253
3386.44,0.150463,0.0583288
3388.37,0.149183,0.0627902
3390.3,0.147914,0.0592722
3392.23,0.146653,0.0558745
3394.16,0.145402,0.0585592
3396.09,0.14416,0.061789
3398.01,0.142928,0.063857
3399.94,0.141704,0.0689002
3401.87,0.140491,0.0728728
3403.8,0.139286,0.0707372
3405.73,0.138091,0.0702457
3407.66,0.136905,0.0686356
3409.59,0.135729,0.0662774
3411.51,0.134562,0.0695026
3413.44,0.133404,0.0654628
3415.37,0.132255,0.0648307
3417.3,0.131117,0.0687416
3419.23,0.129987,0.0693477
3421.16,0.128867,0.0731103
3423.09,0.127756,0.0748085
3425.01,0.126654,0.0726973
3426.94,0.125562,0.0697936
3428.87,0.124479,0.0751984
3430.8,0.123405,0.0781587
3432.73,0.122341,0.0756558
3434.66,0.121286,0.0732881
3436.58,0.120241,0.0754741
3438.51,0.119205,0.0806884
3440.44,0.118178,0.0812733
3442.37,0.11716,0.0881072
3444.3,0.116153,0.0868841
3446.23,0.115154,0.0814076
3448.16,0.114164,0.0882206
3450.08,0.113184,0.0892268
3452.01,0.112214,0.0861008
3453.94,0.111252,0.0831842
3455.87,0.1103,0.0862545
3457.8,0.109358,0.0885088
3459.73,0.108425,0.0860902
3461.66,0.1075,0.0880064
3463.58,0.106586,0.0901403
3465.51,0.105681,0.087033
3467.44,0.104785,0.0899022
3469.37,0.103898,0.0936381
3471.3,0.103021,0.0922271
3473.23,0.102153,0.0876495
3475.15,0.101295,0.089796
3477.08,0.100446,0.0940591
3479.01,0.0996061,0.0962049
3480.94,0.0987755,0.10008
3482.87,0.0979546,0.103884
3484.8,0.0971427,0.102914
3486.72,0.0963406,0.105724
3488.65,0.0955473,0.109381
3490.58,0.0947639,0.10837
3492.51,0.0939894,0.0983996
3494.44,0.0932246,0.0943383
3496.37,0.0924688,0.0934688
3498.3,0.0917228,0.097045
3500.22,0.0909857,0.0895074
3502.15,0.0902583,0.0811742
3504.08,0.0895399,0.086082
3506.01,0.0888313,0.0942776
3507.94,0.0881316,0.0967539
3509.87,0.0874416,0.0975783
3511.8,0.0867607,0.103911
3513.72,0.0860894,0.107999
3515.65,0.0854271,0.108853
3517.58,0.0847746,0.115186
3519.51,0.084131,0.121956
3521.44,0.0834971,0.126837
3523.37,0.0828723,0.133413
3525.3,0.0822571,0.128832
3527.22,0.081651,0.120716
3529.15,0.0810545,0.120216
3531.08,0.080467,0.116422
3533.01,0.0798893,0.11018
3534.94,0.0793205,0.109478
3536.87,0.0787615,0.111754
3538.8,0.0782114,0.108551
3540.72,0.077671,0.103008
3542.65,0.0771397,0.0974341
3544.58,0.076618,0.0976537
3546.51,0.0761054,0.0924547
3548.44,0.0756025,0.0851695
3550.37,0.0751086,0.0836968
3552.29,0.0746243,0.0953789
3554.22,0.0741491,0.10568
3556.15,0.0736835,0.110143
3558.08,0.073227,0.117797
3560.01,0.0727801,0.133664
3561.94,0.0723423,0.147353
3563.86,0.0719141,0.152984
3565.79,0.071495,0.156754
3567.72,0.0710855,0.181187
3569.65,0.0706852,0.193339
3571.58,0.0702944,0.199379
3573.51,0.0699127,0.195215
3575.44,0.0695406,0.169532
3577.36,0.0691777,0.134347
3579.29,0.0688242,0.104863
3581.22,0.06848,0.0890428
3583.15,0.0681453,0.0796013
3585.08,0.0678198,0.0641273
3587.01,0.0675037,0.0621804
3588.94,0.0671969,0.0790063
3590.86,0.0668996,0.0795789
3592.79,0.0666115,0.0831671
3594.72,0.0663329,0.100109
3596.65,0.0660634,0.121595
3598.58,0.0658035,0.127856
3600.51,0.0655528,0.114207
3602.43,0.0653116,0.0830502
3604.36,0.0650796,0.0563698
3606.29,0.0648571,0.0417858
3608.22,0.0646438,0.0400756
3610.15,0.0644399,0.0387154
3612.08,0.0642454,0.0293875
3614.01,0.0640602,0.0350154
3615.93,0.0638844,0.0310933
3617.86,0.0637179,0.0293108
3619.79,0.0635607,0.036042
3621.72,0.063413,0.0368042
3623.65,0.0632745,0.0284919
3625.58,0.0631455,0.0200054
3627.51,0.0630258,0.00562456
3629.43,0.0629154,0.0274499
3631.36,0.0628144,0.0336506
3633.29,0.0627227,0.0272298
3635.22,0.0626404,0.0312145
3637.15,0.0625674,0.0285172
3639.08,0.0625038,0.0256668
3641.01,0.0624495,0.0194448
3642.93,0.0624046,0.0173887
3644.86,0.0623691,0.00991306
3646.79,0.0623428,-0.000439578
3648.72,0.062326,0.00679334
3650.65,0.0623185,0.0339452
3652.58,0.0623203,0.0291773
3654.51,0.0623315,0.00324991
3656.43,0.0623521,0.00824893
3658.36,0.062382,0.0156971
3660.29,0.0624212,0.0112036
3662.22,0.0624698,0.0124547
3664.15,0.0625277,0.0109946
3666.08,0.0625951,0.00352609
3668,0.0626717,-0.00165071
3669.93,0.0627577,0.017337
3671.86,0.062853,0.0220551
3673.79,0.0629578,-0.0069237
3675.72,0.0630718,0.0110171
3677.65,0.0631952,0.0207014
3679.57,0.063328,0.010467
3681.5,0.0634701,0.00850599
3683.43,0.0636215,0.00466974
3685.36,0.0637824,0.000938232
3687.29,0.0639525,-0.00399485
3689.22,0.0641321,0.00942399
3691.15,0.0643209,0.0105683
3693.07,0.0645191,0.0070784
3695,0.0647267,-0.00116944
3696.93,0.0649436,0.00189883