File: olivine/FTIR/SC1-2-800C-7hr-c00-copper-baseline.CSV
baseline wavenumber (cm-1),baseline absorbance (cm-1),baseline-subtracted absorbance (cm-1)
3199.38,0.283138,1.43219e-14
3201.308,0.281368,0.000851926
3203.236,0.279606,0.00183489
3205.165,0.277849,-0.00366962
3207.093,0.276101,-0.00382576
3209.02,0.27436,0.00302714
3210.95,0.272625,0.00585541
3212.88,0.270898,0.00427819
3214.81,0.269177,0.00175629
3216.736,0.267463,0.000947255
3218.664,0.265757,0.00331336
3220.593,0.264057,0.00688881
3222.52,0.262365,0.00327199
3224.449,0.26068,0.00271494
3226.38,0.259001,0.000232698
3228.31,0.25733,0.000999402
3230.235,0.255666,0.00103215
3232.164,0.254008,0.00353082
3234.092,0.252358,0.0113865
3236.02,0.250715,0.0145099
3237.949,0.249079,0.00702708
3239.877,0.24745,-0.00184661
3241.81,0.245828,-0.00155486
3243.73,0.244213,0.00767221
3245.663,0.242605,0.0112285
3247.592,0.241003,0.00634951
3249.52,0.23941,0.00459268
3251.448,0.237823,0.00649252
3253.377,0.236243,0.00303236
3255.305,0.234671,0.00373194
3257.23,0.233104,0.0109264
3259.16,0.231546,0.00926224
3261.091,0.229994,0.00332675
3263.02,0.228449,0.00275014
3264.948,0.226912,0.00599871
3266.88,0.225381,0.00726005
3268.805,0.223857,0.00664616
3270.73,0.222341,0.00350145
3272.66,0.220831,0.00522009
3274.591,0.219328,0.00896849
3276.52,0.217833,0.00680844
3278.448,0.216345,0.0065364
3280.38,0.214864,0.0127541
3282.304,0.21339,0.0107726
3284.23,0.211922,0.00624613
3286.16,0.210462,0.00498744
3288.09,0.209008,0.00883821
3290.02,0.207562,0.00949736
3291.947,0.206123,0.0071269
3293.875,0.204691,0.0120217
3295.804,0.203266,0.0129064
3297.732,0.201848,0.00628561
3299.66,0.200437,0.00507445
3301.59,0.199033,0.0103141
3303.518,0.197636,0.0173316
3305.447,0.196245,0.0182908
3307.375,0.194863,0.0132966
3309.303,0.193487,0.0109336
3311.232,0.192118,0.0148697
3313.16,0.190757,0.0167305
3315.09,0.189402,0.00941637
3317.02,0.188054,0.00694135
3318.946,0.186713,0.00797763
3320.875,0.185379,0.0105842
3322.803,0.184053,0.0107173
3324.73,0.182734,0.00872406
3326.66,0.181421,0.00984894
3328.59,0.180116,0.0111369
3330.52,0.178817,0.0138585
3332.445,0.177526,0.0163565
3334.37,0.176241,0.0186086
3336.302,0.174964,0.0179767
3338.23,0.173693,0.013744
3340.159,0.17243,0.0129606
3342.09,0.171174,0.0156349
3344.02,0.169925,0.0179123
3345.945,0.168682,0.0189744
3347.873,0.167447,0.0181416
3349.802,0.166219,0.0211198
3351.73,0.164998,0.0206066
3353.659,0.163784,0.0178545
3355.587,0.162577,0.0246854
3357.52,0.161377,0.0286149
3359.44,0.160184,0.0252498
3361.373,0.158998,0.0235658
3363.302,0.157818,0.0239015
3365.23,0.156647,0.0232865
3367.158,0.155482,0.0220735
3369.087,0.154324,0.0209593
3371.015,0.153174,0.0219299
3372.94,0.15203,0.0226994
3374.87,0.150893,0.0241193
3376.801,0.149763,0.02471
3378.73,0.148641,0.0288314
3380.658,0.147525,0.0294065
3382.586,0.146417,0.0219956
3384.515,0.145315,0.0137575
3386.44,0.144221,0.0230878
3388.37,0.143133,0.0328094
3390.3,0.142053,0.0282548
3392.23,0.140979,0.0196489
3394.157,0.139913,0.0171306
3396.086,0.138854,0.0257981
3398.014,0.137802,0.0343043
3399.94,0.136756,0.0360726
3401.87,0.135718,0.0303335
3403.8,0.134687,0.0258247
3405.728,0.133663,0.030819
3407.657,0.132646,0.0400938
3409.585,0.131636,0.03928
3411.514,0.130633,0.0325279
3413.442,0.129637,0.0306155
3415.37,0.128648,0.0342829
3417.3,0.127666,0.0327426
3419.228,0.126691,0.0274613
3421.156,0.125723,0.0294053
3423.085,0.124762,0.0299489
3425.013,0.123809,0.0296314
3426.942,0.122862,0.0333612
3428.87,0.121922,0.0358219
3430.8,0.120989,0.0354893
3432.73,0.120064,0.040226
3434.656,0.119145,0.0442754
3436.58,0.118233,0.0449305
3438.513,0.117329,0.0411218
3440.441,0.116431,0.0386491
3442.37,0.115541,0.040583
3444.298,0.114657,0.0320808
3446.23,0.113781,0.0257715
3448.155,0.112912,0.039291
3450.08,0.112049,0.0382007
3452.012,0.111194,0.0364191
3453.941,0.110345,0.0414983
3455.869,0.109504,0.0436762
3457.798,0.10867,0.0435079
3459.73,0.107843,0.0388087
3461.655,0.107023,0.0349368
3463.583,0.10621,0.0424125
3465.512,0.105404,0.0414928
3467.44,0.104605,0.0416645
3469.369,0.103813,0.0425567
3471.297,0.103028,0.0424833
3473.23,0.10225,0.0485758
3475.15,0.101479,0.0454529
3477.083,0.100715,0.0395339
3479.011,0.0999582,0.0443748
3480.94,0.0992082,0.0547421
3482.868,0.0984657,0.0585333
3484.797,0.0977297,0.0572865
3486.725,0.0970012,0.0599144
3488.65,0.0962794,0.0607888
3490.58,0.095565,0.0614689
3492.511,0.0948572,0.0573965
3494.44,0.0941568,0.0572387
3496.368,0.0934631,0.0570555
3498.296,0.0927768,0.0593531
3500.225,0.0920972,0.0535837
3502.153,0.0914249,0.0503906
3504.08,0.0907594,0.0537474
3506.01,0.0901012,0.055281
3507.94,0.0894497,0.0566941
3509.867,0.0888056,0.0661349
3511.796,0.0881682,0.0770326
3513.724,0.0875381,0.0782701
3515.653,0.0869148,0.0697031
3517.58,0.0862988,0.0737149
3519.51,0.0856896,0.0813327
3521.438,0.0850877,0.0856104
3523.367,0.0844925,0.0927557
3525.295,0.0839046,0.0928048
3527.224,0.0833235,0.0922695
3529.152,0.0827497,0.0850135
3531.08,0.0821827,0.0741083
3533.009,0.0816229,0.0744168
3534.938,0.08107,0.0736562
3536.866,0.0805243,0.0734109
3538.795,0.0799854,0.0730269
3540.723,0.0794538,0.0684802
3542.652,0.078929,0.0605682
3544.58,0.0784115,0.0714987
3546.509,0.0779007,0.0750823
3548.437,0.0773973,0.0607475
3550.366,0.0769006,0.0494116
3552.29,0.0764112,0.0614708
3554.223,0.0759286,0.0727388
3556.151,0.0754532,0.0716681
3558.08,0.0749847,0.07951
3560.008,0.0745234,0.101947
3561.937,0.074069,0.120209
3563.865,0.0736218,0.124718
3565.79,0.0731814,0.131462
3567.722,0.0727483,0.147925
3569.651,0.0723219,0.149104
3571.579,0.0719029,0.155573
3573.508,0.0714906,0.151856
3575.44,0.0710856,0.131008
3577.365,0.0706874,0.100258
3579.29,0.0702965,0.0763816
3581.222,0.0699124,0.0607169
3583.15,0.0695355,0.0543446
3585.079,0.0691655,0.0449961
3587.007,0.0688027,0.0486547
3588.94,0.0684467,0.0711106
3590.864,0.068098,0.0680342
3592.79,0.0677561,0.0733741
3594.72,0.0674214,0.094058
3596.65,0.0670936,0.114784
3598.578,0.066773,0.120373
3600.507,0.0664593,0.108764
3602.435,0.0661527,0.0763491
3604.364,0.0658531,0.0438024
3606.292,0.0655606,0.0324651
3608.22,0.065275,0.0335762
3610.15,0.0649966,0.0280383
3612.078,0.0647251,0.0234877
3614.006,0.0644607,0.0265302
3615.935,0.0642033,0.0209392
3617.863,0.063953,0.0271336
3619.792,0.0637096,0.0361925
3621.72,0.0634734,0.031679
3623.65,0.0632441,0.0263617
3625.577,0.0630219,0.0199074
3627.506,0.0628067,0.0156859
3629.434,0.0625986,0.0482436
3631.363,0.0623974,0.0351099
3633.29,0.0622034,0.0178681
3635.22,0.0620163,0.0194116
3637.15,0.0618364,0.014922
3639.077,0.0616634,0.0105138
3641.005,0.0614975,0.00884701
3642.934,0.0613385,0.0145246
3644.862,0.0611867,0.00638101
3646.79,0.0610418,-0.00135419
3648.719,0.0609041,0.0155246
3650.65,0.0607733,0.0374081
3652.58,0.0606496,0.0218469
3654.505,0.0605329,-0.00470516
3656.433,0.0604232,0.0022762
3658.362,0.0603206,0.010481
3660.29,0.060225,0.00429019
3662.219,0.0601364,-0.000916947
3664.147,0.0600549,-0.000592296
3666.08,0.0599804,-0.00323436
3668,0.059913,0.000224818
3669.933,0.0598526,0.0258755
3671.861,0.0597992,0.0288908
3673.79,0.0597528,0.00265153
3675.718,0.0597135,0.0191708
3677.647,0.0596813,0.0186012
3679.575,0.059656,0.0106903
3681.5,0.0596378,0.00936119
3683.43,0.0596266,0.00272069
3685.361,0.0596225,-0.00505885
3687.289,0.0596254,-0.010502
3689.218,0.0596353,0.0117106
3691.15,0.0596523,0.0200367
3693.075,0.0596763,0.00886083
3695,0.0597073,-0.00549249
3696.93,0.0597454,-0.00503759
3698.86,0.0597905,-0.00508268