File: olivine/FTIR/SC1-2-800C-7hr-c04-copper-baseline-high.CSV
wavenumber (/cm),baseline value (/cm),baseline-subtracted absorbance (/cm),
3149.24,0.344118,-0.000178967
3151.17,0.341783,0.00522389
3153.09,0.339459,0.00281446
3155.02,0.337144,-0.00137713
3156.95,0.334837,-0.000360112
3158.88,0.33254,0.000797509
3160.81,0.330253,0.0021467
3162.74,0.327975,0.00483969
3164.67,0.325707,0.00207163
3166.59,0.323448,-0.000660739
3168.52,0.321198,0.00026918
3170.45,0.318956,-0.000405375
3172.38,0.316726,0.000483904
3174.31,0.314503,0.00255335
3176.24,0.312291,0.000623622
3178.17,0.310088,0.00324168
3180.09,0.307894,0.0116835
3182.02,0.305711,0.0099727
3183.95,0.303535,0.00652308
3185.88,0.301369,0.00779598
3187.81,0.299213,0.0116035
3189.74,0.297065,0.0161658
3191.66,0.294928,0.013545
3193.59,0.292799,0.0129997
3195.52,0.290681,0.0137205
3197.45,0.288572,0.0112957
3199.38,0.286471,0.00779656
3201.31,0.284379,0.0086642
3203.24,0.282298,0.0166203
3205.16,0.280225,0.0182269
3207.09,0.278163,0.01622
3209.02,0.27611,0.0201914
3210.95,0.274065,0.0191946
3212.88,0.272031,0.0175754
3214.81,0.270005,0.0198116
3216.74,0.267988,0.019975
3218.66,0.265982,0.0207753
3220.59,0.263984,0.0247482
3222.52,0.261997,0.0268985
3224.45,0.260018,0.0280492
3226.38,0.258048,0.0249368
3228.31,0.256089,0.0198637
3230.24,0.254138,0.021229
3232.16,0.252196,0.0254641
3234.09,0.250264,0.0281951
3236.02,0.248341,0.0315673
3237.95,0.246429,0.0285921
3239.88,0.244525,0.0237383
3241.81,0.24263,0.0219204
3243.73,0.240745,0.0248672
3245.66,0.238869,0.0259909
3247.59,0.237002,0.026128
3249.52,0.235145,0.0274588
3251.45,0.233298,0.0306406
3253.38,0.231459,0.0304885
3255.3,0.22963,0.0277142
3257.23,0.22781,0.0299205
3259.16,0.226,0.0306155
3261.09,0.224199,0.0293879
3263.02,0.222406,0.0277921
3264.95,0.220625,0.029052
3266.88,0.218852,0.0313624
3268.8,0.217088,0.0322772
3270.73,0.215334,0.0298264
3272.66,0.213589,0.0279362
3274.59,0.211853,0.030465
3276.52,0.210127,0.036033
3278.45,0.208409,0.0366242
3280.38,0.206702,0.0354815
3282.3,0.205005,0.0392656
3284.23,0.203315,0.04134
3286.16,0.201636,0.0368325
3288.09,0.199966,0.0345269
3290.02,0.198304,0.03637
3291.95,0.196653,0.039244
3293.88,0.195012,0.0410809
3295.8,0.193379,0.0388861
3297.73,0.191756,0.0347659
3299.66,0.190141,0.0341642
3301.59,0.188537,0.0372566
3303.52,0.186941,0.0440054
3305.45,0.185355,0.0449651
3307.38,0.183779,0.0378602
3309.3,0.182212,0.0371984
3311.23,0.180653,0.0395712
3313.16,0.179105,0.0385726
3315.09,0.177566,0.0349616
3317.02,0.176036,0.0349438
3318.95,0.174515,0.0394017
3320.88,0.173004,0.0410242
3322.8,0.171502,0.0420282
3324.73,0.17001,0.0417901
3326.66,0.168527,0.0375007
3328.59,0.167053,0.0406711
3330.52,0.165588,0.0476404
3332.45,0.164134,0.0474419
3334.37,0.162688,0.0489912
3336.3,0.161252,0.0543512
3338.23,0.159824,0.0528074
3340.16,0.158407,0.0499864
3342.09,0.156998,0.0489501
3344.02,0.1556,0.0480439
3345.95,0.15421,0.0543607
3347.87,0.15283,0.0558732
3349.8,0.151459,0.0531867
3351.73,0.150097,0.0470971
3353.66,0.148745,0.044113
3355.59,0.147402,0.0507563
3357.52,0.146068,0.0561447
3359.44,0.144745,0.0527858
3361.37,0.14343,0.0534743
3363.3,0.142124,0.0585285
3365.23,0.140828,0.0581944
3367.16,0.139542,0.0546149
3369.09,0.138264,0.0530889
3371.01,0.136996,0.0510291
3372.94,0.135737,0.0509411
3374.87,0.134488,0.0532166
3376.8,0.133248,0.0569401
3378.73,0.132017,0.0613108
3380.66,0.130796,0.0588977
3382.59,0.129584,0.0543156
3384.51,0.128381,0.050631
3386.44,0.127188,0.0543571
3388.37,0.126004,0.057985
3390.3,0.12483,0.0542376
3392.23,0.123665,0.0521655
3394.16,0.122509,0.0560582
3396.09,0.121362,0.0583561
3398.01,0.120225,0.0613669
3399.94,0.119097,0.067601
3401.87,0.117979,0.0626267
3403.8,0.11687,0.0582613
3405.73,0.11577,0.0632696
3407.66,0.11468,0.0627721
3409.59,0.113599,0.0612888
3411.51,0.112527,0.0644879
3413.44,0.111465,0.0642955
3415.37,0.110412,0.0621752
3417.3,0.109368,0.0611224
3419.23,0.108334,0.0644653
3421.16,0.107309,0.0700774
3423.09,0.106293,0.0675335
3425.01,0.105288,0.0612801
3426.94,0.10429,0.0642857
3428.87,0.103303,0.0699518
3430.8,0.102325,0.0704181
3432.73,0.101356,0.0708221
3434.66,0.100396,0.0708734
3436.58,0.0994466,0.0725471
3438.51,0.0985056,0.0713956
3440.44,0.0975745,0.0667669
3442.37,0.0966522,0.0732747
3444.3,0.0957397,0.0773691
3446.23,0.0948361,0.0706895
3448.16,0.0939424,0.074298
3450.08,0.0930575,0.0765258
3452.01,0.0921824,0.0761279
3453.94,0.0913163,0.0763954
3455.87,0.0904599,0.0748435
3457.8,0.0896124,0.0767732
3459.73,0.0887748,0.079864
3461.66,0.087946,0.0829707
3463.58,0.087127,0.0864319
3465.51,0.086317,0.0799838
3467.44,0.0855167,0.0774408
3469.37,0.0847254,0.0828288
3471.3,0.0839438,0.0835591
3473.23,0.0831712,0.0821161
3475.15,0.0824083,0.0832842
3477.08,0.0816544,0.0838009
3479.01,0.0809102,0.0879316
3480.94,0.080175,0.0898571
3482.87,0.0794495,0.0936337
3484.8,0.078733,0.0895751
3486.72,0.0780262,0.0903696
3488.65,0.0773284,0.095413
3490.58,0.0766403,0.0944228
3492.51,0.0759612,0.0878666
3494.44,0.0752918,0.0844425
3496.37,0.0746314,0.0914757
3498.3,0.0739807,0.0988855
3500.22,0.073339,0.094396
3502.15,0.072707,0.0867807
3504.08,0.0720841,0.0856649
3506.01,0.0714708,0.0852358
3507.94,0.0708665,0.0810952
3509.87,0.0702719,0.0865957
3511.8,0.0696863,0.0998907
3513.72,0.0691104,0.102226
3515.65,0.0685436,0.101294
3517.58,0.0679864,0.108048
3519.51,0.0674382,0.111844
3521.44,0.0668997,0.117095
3523.37,0.0663703,0.126251
3525.3,0.0658505,0.124101
3527.22,0.0653397,0.117289
3529.15,0.0648386,0.11508
3531.08,0.0643466,0.112987
3533.01,0.0638642,0.109935
3534.94,0.0633909,0.103488
3536.87,0.0629271,0.0993231
3538.8,0.0624725,0.094906
3540.72,0.0620275,0.0925317
3542.65,0.0615916,0.0944442
3544.58,0.0611653,0.0974956
3546.51,0.0607481,0.0957184
3548.44,0.0603404,0.0885056
3550.37,0.059942,0.0785575
3552.29,0.059553,0.0793821
3554.22,0.0591732,0.0894474
3556.15,0.058803,0.0990521
3558.08,0.0584419,0.110808
3560.01,0.0580904,0.129128
3561.94,0.057748,0.144838
3563.86,0.0574152,0.148069
3565.79,0.0570915,0.1488
3567.72,0.0567774,0.175707
3569.65,0.0564724,0.189527
3571.58,0.056177,0.195248
3573.51,0.0558908,0.190066
3575.44,0.055614,0.165553
3577.36,0.0553465,0.133901
3579.29,0.0550884,0.105146
3581.22,0.0548396,0.0855669
3583.15,0.0546002,0.0750856
3585.08,0.0543701,0.064862
3587.01,0.0541495,0.0639841
3588.94,0.0539381,0.0798069
3590.86,0.0537361,0.0799506
3592.79,0.0535434,0.0811265
3594.72,0.0533601,0.10177
3596.65,0.0531861,0.132996
3598.58,0.0530216,0.140829
3600.51,0.0528663,0.122068
3602.43,0.0527204,0.0846961
3604.36,0.0525838,0.0549313
3606.29,0.0524567,0.0424009
3608.22,0.0523388,0.0396678
3610.15,0.0522303,0.0402358
3612.08,0.0521311,0.0337252
3614.01,0.0520414,0.0396758
3615.93,0.0519609,0.0366181
3617.86,0.0518898,0.033723
3619.79,0.0518281,0.0381183
3621.72,0.0517757,0.0361499
3623.65,0.0517326,0.0302233
3625.58,0.051699,0.0235437
3627.51,0.0516746,0.0101448
3629.43,0.0516596,0.0310742
3631.36,0.051654,0.0322041
3633.29,0.0516577,0.0229383
3635.22,0.0516708,0.0253737
3637.15,0.0516932,0.0219635
3639.08,0.051725,0.0222011
3641.01,0.0517661,0.0227645
3642.93,0.0518166,0.0211661
3644.86,0.0518764,0.0131613
3646.79,0.0519456,-0.00069282
3648.72,0.0520241,0.00363337
3650.65,0.052112,0.0260391
3652.58,0.0522092,0.0217523
3654.51,0.0523158,-0.0024426
3656.43,0.0524317,0.00328542
3658.36,0.052557,0.0121525
3660.29,0.0526916,0.0083866
3662.22,0.0528356,0.0083303
3664.15,0.0529889,0.00657748
3666.08,0.0531517,-0.00153179
3668,0.0533236,-0.00374398
3669.93,0.0535051,0.0167785
3671.86,0.0536958,0.0204306
3673.79,0.0538959,-0.0047651
3675.72,0.0541053,0.0160704
3677.65,0.0543242,0.0232853
3679.57,0.0545522,0.0136123
3681.5,0.0547898,0.0135297
3683.43,0.0550366,0.00762988
3685.36,0.0552928,0.000168291
3687.29,0.0555583,-0.00661078
3689.22,0.0558333,0.0155462
3691.15,0.0561175,0.0192543
3693.07,0.0564112,0.00574543
3695,0.056714,-0.00526517
3696.93,0.0570264,-0.00563079