File: olivine/FTIR/SC1-2-800C-7hr-c04-copper-low-baseline.CSV
baseline wavenumber (cm-1),baseline absorbance (cm-1),baseline-subtracted absorbance (cm-1)
3199.38,0.294267,1.56541e-14
3201.308,0.292077,0.000966898
3203.236,0.289897,0.00902167
3205.165,0.287726,0.0107265
3207.093,0.285566,0.0088174
3209.02,0.283415,0.012886
3210.95,0.281274,0.011986
3212.88,0.279143,0.0104629
3214.81,0.277022,0.012795
3216.736,0.27491,0.0130536
3218.664,0.272809,0.0139487
3220.593,0.270716,0.0180159
3222.52,0.268635,0.0202599
3224.449,0.266564,0.0215038
3226.38,0.264501,0.0184842
3228.31,0.262449,0.0135034
3230.235,0.260406,0.0149605
3232.164,0.258373,0.0192869
3234.092,0.256351,0.0221086
3236.02,0.254337,0.0255711
3237.949,0.252335,0.0226858
3239.877,0.250342,0.0179212
3241.81,0.248358,0.0161921
3243.73,0.246385,0.0192272
3245.663,0.244421,0.0204387
3247.592,0.242467,0.0206632
3249.52,0.240523,0.0220808
3251.448,0.23859,0.0253487
3253.377,0.236665,0.0252825
3255.305,0.234751,0.0225935
3257.23,0.232846,0.0248846
3259.16,0.230952,0.025664
3261.091,0.229066,0.0245202
3263.02,0.227191,0.0230078
3264.948,0.225326,0.0243504
3266.88,0.223471,0.0267432
3268.805,0.221625,0.0277398
3270.73,0.21979,0.0253704
3272.66,0.217964,0.023561
3274.591,0.216147,0.0261702
3276.52,0.214342,0.031818
3278.448,0.212545,0.0324885
3280.38,0.210759,0.0314247
3282.304,0.208983,0.0352871
3284.23,0.207216,0.0374393
3286.16,0.20546,0.0330093
3288.09,0.203712,0.0307805
3290.02,0.201975,0.0327
3291.947,0.200248,0.0356499
3293.875,0.198531,0.0375621
3295.804,0.196823,0.0354422
3297.732,0.195125,0.0313963
3299.66,0.193437,0.0308685
3301.59,0.191759,0.0340343
3303.518,0.190091,0.040856
3305.447,0.188432,0.0418881
3307.375,0.186784,0.0348551
3309.303,0.185145,0.0342647
3311.232,0.183516,0.0367084
3313.16,0.181898,0.0357802
3315.09,0.180288,0.0322391
3317.02,0.178689,0.0322906
3318.946,0.177099,0.0368175
3320.875,0.175519,0.0385084
3322.803,0.17395,0.0395803
3324.73,0.172391,0.0394096
3326.66,0.17084,0.0351871
3328.59,0.1693,0.038424
3330.52,0.16777,0.0454592
3332.445,0.16625,0.0453261
3334.37,0.164738,0.0469404
3336.302,0.163238,0.0523648
3338.23,0.161747,0.050885
3340.159,0.160266,0.0481273
3342.09,0.158794,0.047154
3344.02,0.157333,0.0463103
3345.945,0.155881,0.052689
3347.873,0.15444,0.0542629
3349.802,0.153008,0.0516374
3351.73,0.151586,0.0456083
3353.659,0.150174,0.0426842
3355.587,0.148772,0.0493869
3357.52,0.147379,0.0548343
3359.44,0.145997,0.0515338
3361.373,0.144624,0.0522804
3363.302,0.14326,0.057392
3365.23,0.141908,0.0571149
3367.158,0.140565,0.0535919
3369.087,0.139231,0.0521218
3371.015,0.137908,0.0501175
3372.94,0.136594,0.0500845
3374.87,0.13529,0.0524145
3376.801,0.133996,0.056192
3378.73,0.132712,0.0606162
3380.658,0.131437,0.0582561
3382.586,0.130173,0.0537265
3384.515,0.128918,0.0500939
3386.44,0.127674,0.0538715
3388.37,0.126439,0.0575504
3390.3,0.125214,0.0538536
3392.23,0.123999,0.0518315
3394.157,0.122794,0.0557737
3396.086,0.121598,0.0581206
3398.014,0.120412,0.0611799
3399.94,0.119236,0.0674621
3401.87,0.118071,0.0625353
3403.8,0.116914,0.058217
3405.728,0.115768,0.0632718
3407.657,0.114632,0.0628203
3409.585,0.113505,0.0613826
3411.514,0.112388,0.0646267
3413.442,0.111282,0.0644789
3415.37,0.110184,0.0624027
3417.3,0.109097,0.0613934
3419.228,0.10802,0.0647794
3421.156,0.106953,0.070434
3423.085,0.105895,0.0679323
3425.013,0.104847,0.0617203
3426.942,0.103809,0.0647671
3428.87,0.102781,0.0704737
3430.8,0.101763,0.0709801
3432.73,0.100755,0.0714237
3434.656,0.0997558,0.071514
3436.58,0.0987674,0.0732264
3438.513,0.0977883,0.072113
3440.441,0.0968195,0.0675218
3442.37,0.0958601,0.0740667
3444.298,0.0949111,0.0781977
3446.23,0.0939714,0.0715543
3448.155,0.093042,0.0751983
3450.08,0.0921221,0.0774612
3452.012,0.0912124,0.0770979
3453.941,0.0903121,0.0773996
3455.869,0.0894221,0.0758812
3457.798,0.0885415,0.0778441
3459.73,0.0876713,0.0809675
3461.655,0.0868104,0.0841064
3463.583,0.0859598,0.0875992
3465.512,0.0851186,0.0811822
3467.44,0.0842877,0.0786698
3469.369,0.0834662,0.084088
3471.297,0.082655,0.0848479
3473.23,0.0818532,0.083434
3475.15,0.0810617,0.0846308
3477.083,0.0802796,0.0851756
3479.011,0.0795078,0.089334
3480.94,0.0787454,0.0912866
3482.868,0.0779933,0.0950899
3484.797,0.0772506,0.0910574
3486.725,0.0765182,0.0918776
3488.65,0.0757952,0.0969462
3490.58,0.0750824,0.0959806
3492.511,0.0743792,0.0894486
3494.44,0.0736861,0.0860482
3496.368,0.0730025,0.0931046
3498.296,0.0723292,0.100537
3500.225,0.0716653,0.0960697
3502.153,0.0710116,0.0884761
3504.08,0.0703674,0.0873815
3506.01,0.0697335,0.0869731
3507.94,0.069109,0.0828527
3509.867,0.0684947,0.0883729
3511.796,0.0678899,0.101687
3513.724,0.0672953,0.104042
3515.653,0.0667103,0.103127
3517.58,0.0661354,0.109899
3519.51,0.06557,0.113712
3521.438,0.0650148,0.11898
3523.367,0.0644691,0.128152
3525.295,0.0639336,0.126018
3527.224,0.0634076,0.119221
3529.152,0.0628918,0.117026
3531.08,0.0623855,0.114948
3533.009,0.0618894,0.111909
3534.938,0.0614028,0.105476
3536.866,0.0609264,0.101324
3538.795,0.0604595,0.096919
3540.723,0.0600028,0.0945564
3542.652,0.0595556,0.0964802
3544.58,0.0591185,0.0995423
3546.509,0.0586911,0.0977753
3548.437,0.0582737,0.0905723
3550.366,0.057866,0.0806335
3552.29,0.0574683,0.0814669
3554.223,0.0570802,0.0915405
3556.151,0.0567022,0.101153
3558.08,0.0563339,0.112916
3560.008,0.0559756,0.131243
3561.937,0.0556269,0.146959
3563.865,0.0552883,0.150195
3565.79,0.0549594,0.150932
3567.722,0.0546405,0.177844
3569.651,0.0543312,0.191668
3571.579,0.054032,0.197393
3573.508,0.0537424,0.192214
3575.44,0.0534629,0.167704
3577.365,0.0531931,0.136054
3579.29,0.0529332,0.107301
3581.222,0.0526831,0.0877234
3583.15,0.0524429,0.077243
3585.079,0.0522125,0.0670196
3587.007,0.051992,0.0661416
3588.94,0.0517813,0.0819636
3590.864,0.0515805,0.0821062
3592.79,0.0513895,0.0832804
3594.72,0.0512084,0.103922
3596.65,0.0510371,0.135145
3598.578,0.0508757,0.142975
3600.507,0.0507241,0.12421
3602.435,0.0505824,0.0868342
3604.364,0.0504504,0.0570647
3606.292,0.0503284,0.0445291
3608.22,0.0502162,0.0417903
3610.15,0.0501139,0.0423522
3612.078,0.0500214,0.0358349
3614.006,0.0499387,0.0417784
3615.935,0.0498659,0.0387131
3617.863,0.049803,0.0358098
3619.792,0.0497499,0.0401965
3621.72,0.0497066,0.038219
3623.65,0.0496732,0.0322827
3625.577,0.0496496,0.025593
3627.506,0.0496359,0.0121835
3629.434,0.0496321,0.0331017
3631.363,0.0496381,0.0342201
3633.29,0.0496539,0.0249421
3635.22,0.0496796,0.0273649
3637.15,0.0497151,0.0239416
3639.077,0.0497605,0.0241656
3641.005,0.0498157,0.0247149
3642.934,0.0498808,0.0231019
3644.862,0.0499557,0.015082
3646.79,0.0500405,0.00121227
3648.719,0.0501351,0.00552237
3650.65,0.0502396,0.0279115
3652.58,0.0503539,0.0236076
3654.505,0.0504781,-0.000604867
3656.433,0.050612,0.00510507
3658.362,0.0507559,0.0139535
3660.29,0.0509096,0.0101686
3662.219,0.0510732,0.0100927
3664.147,0.0512466,0.00831984
3666.08,0.0514299,0.000189992
3668,0.0516229,-0.00204326
3669.933,0.0518259,0.0184576
3671.861,0.0520387,0.0220877
3673.79,0.0522614,-0.00313056
3675.718,0.0524938,0.0176818
3677.647,0.0527362,0.0248732
3679.575,0.0529884,0.0151762
3681.5,0.0532505,0.015069
3683.43,0.0535223,0.00914418
3685.361,0.0538041,0.00165705
3687.289,0.0540956,-0.00514805
3689.218,0.0543971,0.0169824
3691.15,0.0547083,0.0206635
3693.075,0.0550295,0.00712706
3695,0.0553604,-0.00391155
3696.93,0.0557013,-0.0043057
3698.86,0.0560519,-0.00465628