File: olivine/FTIR/SC1-2-800C-7hr-c06-copper-SiO-baseline.CSV
wavenumber (/cm),baseline value (/cm),baseline-subtracted absorbance (/cm),
1625.72,11.2607,5.32907e-15
1627.65,11.2405,0.105704
1629.58,11.2203,0.325109
1631.51,11.2,0.0610516
1633.44,11.1798,-0.267405
1635.37,11.1596,-0.696959
1637.3,11.1394,-0.458479
1639.22,11.1191,-0.0620446
1641.15,11.0989,0.283601
1643.08,11.0787,0.396229
1645.01,11.0585,0.18994
1646.94,11.0382,-0.213373
1648.87,11.018,-0.256461
1650.8,10.9978,-0.197563
1652.72,10.9776,-0.447071
1654.65,10.9573,0.123331
1656.58,10.9371,0.608798
1658.51,10.9169,0.562465
1660.44,10.8967,0.682082
1662.37,10.8764,0.874499
1664.29,10.8562,0.94116
1666.22,10.836,0.724242
1668.15,10.8158,0.572854
1670.08,10.7955,0.594979
1672.01,10.7753,0.802623
1673.94,10.7551,0.511779
1675.87,10.7349,0.497772
1677.79,10.7146,0.919871
1679.72,10.6944,0.78305
1681.65,10.6742,0.525451
1683.58,10.654,0.40309
1685.51,10.6337,0.67204
1687.44,10.6135,0.588009
1689.37,10.5933,0.609032
1691.29,10.5731,0.961526
1693.22,10.5529,1.01303
1695.15,10.5326,0.679337
1697.08,10.5124,0.587861
1699.01,10.4922,0.39786
1700.94,10.472,0.489044
1702.86,10.4517,0.889208
1704.79,10.4315,0.678153
1706.72,10.4113,1.23896
1708.65,10.3911,1.36906
1710.58,10.3708,1.04195
1712.51,10.3506,1.21485
1714.43,10.3304,1.02376
1716.36,10.3102,0.481308
1718.29,10.2899,0.538573
1720.22,10.2697,1.01799
1722.15,10.2495,1.3322
1724.08,10.2293,1.26144
1726.01,10.209,1.20877
1727.93,10.1888,1.17446
1729.86,10.1686,0.988014
1731.79,10.1484,1.3034
1733.72,10.1281,1.86231
1735.65,10.1079,1.61112
1737.58,10.0877,1.54627
1739.51,10.0675,1.52916
1741.43,10.0473,1.83542
1743.36,10.027,1.7666
1745.29,10.0068,1.38301
1747.22,9.98658,1.04903
1749.15,9.96636,1.14437
1751.08,9.94613,1.73336
1753.01,9.92591,2.03737
1754.93,9.90568,2.08763
1756.86,9.88546,2.03182
1758.79,9.86523,2.01807
1760.72,9.84501,1.48677
1762.65,9.82478,1.34398
1764.58,9.80456,1.93888
1766.51,9.78433,1.97357
1768.43,9.76412,1.79044
1770.36,9.74389,1.70023
1772.29,9.72367,1.48919
1774.22,9.70344,1.74054
1776.15,9.68322,2.22131
1778.08,9.66299,2.13678
1780,9.64277,1.81527
1781.93,9.62254,2.29826
1783.86,9.60232,2.54635
1785.79,9.58209,2.24081
1787.72,9.56187,2.21134
1789.65,9.54165,2.34103
1791.58,9.52143,2.35242
1793.5,9.5012,2.09654
1795.43,9.48098,1.97785
1797.36,9.46075,2.04486
1799.29,9.44053,1.90439
1801.22,9.4203,1.99104
1803.15,9.40008,2.35123
1805.08,9.37985,2.34242
1807,9.35963,2.33521
1808.93,9.3394,2.73415
1810.86,9.31919,2.72809
1812.79,9.29896,2.31444
1814.72,9.27874,2.37826
1816.65,9.25851,2.6384
1818.57,9.23829,2.63819
1820.5,9.21806,2.57437
1822.43,9.19784,2.57289
1824.36,9.17761,2.43551
1826.29,9.15739,2.23249
1828.22,9.13716,2.49043
1830.14,9.11694,2.45468
1832.07,9.09671,2.59123
1834,9.0765,2.74518
1835.93,9.05627,2.42802
1837.86,9.03605,2.34354
1839.79,9.01582,2.68328
1841.72,8.9956,3.03089
1843.64,8.97537,2.90704
1845.57,8.95515,2.75198
1847.5,8.93492,2.94422
1849.43,8.9147,2.77228
1851.36,8.89447,2.57882
1853.29,8.87425,2.66691
1855.22,8.85403,2.90739
1857.14,8.83381,3.18969
1859.07,8.81358,3.44945
1861,8.79336,3.09004
1862.93,8.77313,2.80854
1864.86,8.75291,3.2511
1866.79,8.73269,3.30334
1868.71,8.71246,2.78826
1870.64,8.69223,2.57174
1872.57,8.67201,2.7518
1874.5,8.65179,3.18733
1876.43,8.63157,3.14489
1878.36,8.61134,2.77136
1880.29,8.59112,2.85725
1882.21,8.57089,3.19058
1884.14,8.55067,3.13125
1886.07,8.53044,3.17627
1888,8.51022,3.21763
1889.93,8.48999,3.08924
1891.86,8.46977,3.1547
1893.79,8.44954,3.54755
1895.71,8.42932,3.48981
1897.64,8.40909,3.41264
1899.57,8.38888,3.51059
1901.5,8.36865,3.38774
1903.43,8.34843,3.36999
1905.36,8.3282,3.58231
1907.29,8.30798,3.56668
1909.21,8.28775,3.5126
1911.14,8.26753,3.60715
1913.07,8.2473,3.79022
1915,8.22708,3.88641
1916.93,8.20686,3.72893
1918.86,8.18663,3.73453
1920.79,8.16641,3.79036
1922.71,8.14619,3.40059
1924.64,8.12597,3.42615
1926.57,8.10574,3.62231
1928.5,8.08551,3.6894
1930.43,8.06529,3.90033
1932.36,8.04507,4.13269
1934.28,8.02484,4.00271
1936.21,8.00461,4.11436
1938.14,7.98439,3.98273
1940.07,7.96417,3.88252
1942,7.94395,3.97773
1943.93,7.92372,4.07371
1945.86,7.9035,3.99836
1947.78,7.88328,3.70255
1949.71,7.86305,3.68453
1951.64,7.84282,4.03471
1953.57,7.8226,4.57904
1955.5,7.80238,4.82081
1957.43,7.78215,4.31757
1959.35,7.76193,4.08073
1961.28,7.7417,4.19861
1963.21,7.72149,4.42217
1965.14,7.70126,4.40295
1967.07,7.68104,4.02431
1969,7.66081,3.86595
1970.92,7.64059,4.08238
1972.85,7.62036,4.27576
1974.78,7.60014,4.13539
1976.71,7.57991,4.05007
1978.64,7.55969,4.22649
1980.57,7.53946,4.52241
1982.5,7.51924,4.42144
1984.42,7.49901,4.37112
1986.35,7.47879,4.79483
1988.28,7.45857,4.84102
1990.21,7.43835,4.3326
1992.14,7.41812,4.1417
1994.07,7.39789,4.27645
1996,7.37767,4.36829
1997.92,7.35745,4.5698
1999.85,7.33722,4.8197
2001.78,7.317,4.84223
2003.71,7.29677,4.56907
2005.64,7.27655,4.54607
2007.57,7.25633,4.82487
2009.49,7.23611,4.83887
2011.42,7.21588,4.33744
2013.35,7.19566,4.08013
2015.28,7.17543,4.18307
2017.21,7.15521,4.75563
2019.14,7.13498,4.888
2021.07,7.11476,4.81857
2022.99,7.09453,4.92498
2024.92,7.07431,4.75528
2026.85,7.05408,4.54542
2028.78,7.03386,4.70671
2030.71,7.01364,5.02343
2032.64,6.99342,5.10961
2034.57,6.97319,4.92673
2036.49,6.95297,4.97874
2038.42,6.93274,5.07368
2040.35,6.91252,4.98327
2042.28,6.89229,5.1442
2044.21,6.87207,5.02574
2046.14,6.85184,4.57701
2048.07,6.83162,4.61523
2049.99,6.81139,4.5914
2051.92,6.79118,4.52326
2053.85,6.77095,4.55509
2055.78,6.75073,4.23949
2057.71,6.7305,3.82695
2059.64,6.71028,3.52126
2061.57,6.69005,3.27052
2063.49,6.66983,3.05064
2065.42,6.6496,2.89073
2067.35,6.62938,2.61617
2069.28,6.60915,2.32718
2071.21,6.58893,2.1329
2073.14,6.56871,1.95307
2075.06,6.54849,1.84474
2076.99,6.52826,1.75668
2078.92,6.50804,1.61796
2080.85,6.48781,1.47655
2082.78,6.46759,1.35397
2084.71,6.44736,1.26047
2086.64,6.42714,1.14785
2088.56,6.40691,1.01463
2090.49,6.38669,0.954418
2092.42,6.36646,0.907145
2094.35,6.34624,0.838179
2096.28,6.32602,0.819113
2098.21,6.3058,0.751366
2100.14,6.28557,0.655048
2102.06,6.26535,0.59465
2103.99,6.24512,0.555221
2105.92,6.2249,0.509787
2107.85,6.20467,0.481189
2109.78,6.18445,0.44972
2111.71,6.16422,0.394355
2113.63,6.144,0.374333
2115.56,6.12377,0.362945
2117.49,6.10356,0.331389
2119.42,6.08333,0.3256
2121.35,6.06311,0.301434
2123.28,6.04288,0.240136
2125.2,6.02266,0.197811
2127.13,6.00243,0.197207
2129.06,5.98221,0.208961
2130.99,5.96198,0.173211
2132.92,5.94176,0.122496
2134.85,5.92153,0.115393
2136.78,5.90131,0.12236
2138.7,5.88108,0.124728
2140.63,5.86087,0.0981059
2142.56,5.84064,0.0868636
2144.49,5.82042,0.0811601
2146.42,5.80019,0.0495851
2148.35,5.77997,0.0130113